Subject ID,AF3_Shannon,AF3_Energy0_4,AF3_Energy4_8,AF3_Energy8_10,AF3_Energy10_12,AF3_Energy13_19,AF3_Energy20_30,AF3_Energy30_60,F3_Shannon,F3_Energy0_4,F3_Energy4_8,F3_Energy8_10,F3_Energy10_12,F3_Energy13_19,F3_Energy20_30,F3_Energy30_60,F7_Shannon,F7_Energy0_4,F7_Energy4_8,F7_Energy8_10,F7_Energy10_12,F7_Energy13_19,F7_Energy20_30,F7_Energy30_60,FC5_Shannon,FC5_Energy0_4,FC5_Energy4_8,FC5_Energy8_10,FC5_Energy10_12,FC5_Energy13_19,FC5_Energy20_30,FC5_Energy30_60,O1_Shannon,O1_Energy0_4,O1_Energy4_8,O1_Energy8_10,O1_Energy10_12,O1_Energy13_19,O1_Energy20_30,O1_Energy30_60,P7_Shannon,P7_Energy0_4,P7_Energy4_8,P7_Energy8_10,P7_Energy10_12,P7_Energy13_19,P7_Energy20_30,P7_Energy30_60,T7_Shannon,T7_Energy0_4,T7_Energy4_8,T7_Energy8_10,T7_Energy10_12,T7_Energy13_19,T7_Energy20_30,T7_Energy30_60,AF4_Shannon,AF4_Energy0_4,AF4_Energy4_8,AF4_Energy8_10,AF4_Energy10_12,AF4_Energy13_19,AF4_Energy20_30,AF4_Energy30_60,F4_Shannon,F4_Energy0_4,F4_Energy4_8,F4_Energy8_10,F4_Energy10_12,F4_Energy13_19,F4_Energy20_30,F4_Energy30_60,F8_Shannon,F8_Energy0_4,F8_Energy4_8,F8_Energy8_10,F8_Energy10_12,F8_Energy13_19,F8_Energy20_30,F8_Energy30_60,FC6_Shannon,FC6_Energy0_4,FC6_Energy4_8,FC6_Energy8_10,FC6_Energy10_12,FC6_Energy13_19,FC6_Energy20_30,FC6_Energy30_60,O2_Shannon,O2_Energy0_4,O2_Energy4_8,O2_Energy8_10,O2_Energy10_12,O2_Energy13_19,O2_Energy20_30,O2_Energy30_60,T8_Shannon,T8_Energy0_4,T8_Energy4_8,T8_Energy8_10,T8_Energy10_12,T8_Energy13_19,T8_Energy20_30,T8_Energy30_60,P8_Shannon,P8_Energy0_4,P8_Energy4_8,P8_Energy8_10,P8_Energy10_12,P8_Energy13_19,P8_Energy20_30,P8_Energy30_60,class,"parts {1=akoustiko,2=optiko,3=mousiki}"
1,123.546,0.561,0.217,0.053,0.024,0.031,0.06,0.054,149.498,0.488,0.173,0.048,0.026,0.05,0.116,0.099,84.383,0.76,0.107,0.027,0.01,0.02,0.031,0.044,127.74,0.655,0.135,0.026,0.025,0.028,0.06,0.071,177.66,0.613,0.127,0.016,0.011,0.061,0.073,0.099,222.837,0.526,0.092,0.017,0.023,0.09,0.102,0.149,96.428,0.831,0.02,0.002,0.002,0.011,0.054,0.08,56.555,0.717,0.216,0.012,0.006,0.016,0.016,0.018,126.011,0.602,0.154,0.037,0.014,0.034,0.085,0.073,59.688,0.805,0.089,0.024,0.01,0.016,0.029,0.027,90.522,0.759,0.09,0.024,0.01,0.023,0.049,0.045,153.986,0.56,0.118,0.024,0.009,0.062,0.097,0.131,69.056,0.804,0.062,0.017,0.008,0.021,0.047,0.041,19.68,0.934,0.031,0.011,0.01,0.007,0.005,0.002,CN,1
1,122.813,0.648,0.177,0.025,0.007,0.031,0.044,0.067,166.113,0.492,0.195,0.039,0.01,0.059,0.081,0.125,110.929,0.681,0.134,0.016,0.01,0.031,0.054,0.075,172.251,0.496,0.17,0.018,0.009,0.063,0.095,0.149,214.297,0.503,0.163,0.03,0.026,0.082,0.074,0.122,278.473,0.297,0.181,0.026,0.02,0.148,0.099,0.229,143.19,0.107,0.013,0.003,0.005,0.073,0.193,0.606,56.505,0.751,0.166,0.014,0.005,0.015,0.019,0.031,132.318,0.583,0.179,0.031,0.01,0.044,0.064,0.087,70.569,0.825,0.082,0.015,0.011,0.016,0.022,0.03,105.859,0.769,0.086,0.019,0.012,0.027,0.031,0.057,184.347,0.528,0.111,0.046,0.026,0.085,0.075,0.127,93.922,0.789,0.071,0.017,0.009,0.033,0.03,0.051,42.844,0.824,0.084,0.016,0.009,0.029,0.018,0.021,CN,1
1,119.365,0.657,0.203,0.012,0.007,0.03,0.039,0.052,180.763,0.516,0.189,0.022,0.021,0.061,0.088,0.103,88.812,0.591,0.262,0.01,0.007,0.025,0.043,0.062,148.457,0.554,0.185,0.006,0.009,0.054,0.083,0.109,218.049,0.504,0.152,0.035,0.014,0.099,0.083,0.113,194.447,0.684,0.106,0.013,0.012,0.055,0.048,0.081,215.296,0.152,0.049,0.006,0.006,0.079,0.285,0.422,53.628,0.513,0.174,0.005,0.003,0.034,0.083,0.188,159.037,0.516,0.206,0.026,0.017,0.061,0.083,0.09,85.112,0.737,0.125,0.017,0.006,0.02,0.047,0.047,129.541,0.694,0.13,0.019,0.008,0.033,0.054,0.062,205.466,0.304,0.261,0.023,0.009,0.111,0.139,0.152,118.258,0.677,0.134,0.014,0.009,0.043,0.057,0.067,69.989,0.225,0.035,0.003,0.003,0.313,0.338,0.082,CN,1
1,116.446,0.596,0.136,0.009,0.009,0.045,0.08,0.124,157.731,0.366,0.135,0.014,0.016,0.068,0.156,0.245,86.773,0.641,0.152,0.013,0.008,0.025,0.062,0.1,138.161,0.502,0.097,0.014,0.018,0.053,0.105,0.212,189.097,0.388,0.103,0.03,0.009,0.071,0.121,0.279,205.796,0.304,0.048,0.013,0.014,0.073,0.119,0.43,44.1,0.762,0.061,0.006,0.001,0.013,0.045,0.113,54.681,0.747,0.178,0.012,0.005,0.008,0.013,0.037,134.088,0.399,0.128,0.012,0.01,0.08,0.155,0.215,98.297,0.643,0.132,0.008,0.007,0.039,0.061,0.11,133.001,0.41,0.126,0.007,0.009,0.073,0.17,0.205,173.264,0.206,0.106,0.031,0.018,0.096,0.2,0.344,94.477,0.235,0.096,0.025,0.018,0.09,0.217,0.319,91.92,0.792,0.077,0.013,0.019,0.037,0.029,0.033,CN,1
1,120.412,0.676,0.207,0.021,0.006,0.023,0.032,0.036,180.029,0.464,0.223,0.022,0.009,0.07,0.113,0.099,92.149,0.711,0.199,0.017,0.005,0.015,0.022,0.031,148.63,0.622,0.179,0.02,0.009,0.038,0.056,0.075,230.99,0.428,0.13,0.031,0.045,0.105,0.095,0.166,311.476,0.346,0.076,0.022,0.043,0.137,0.136,0.239,60.474,0.545,0.044,0.01,0.008,0.036,0.107,0.25,59.918,0.782,0.159,0.009,0.003,0.009,0.016,0.023,161.237,0.497,0.212,0.021,0.015,0.063,0.095,0.097,111.374,0.622,0.204,0.021,0.009,0.038,0.038,0.067,160.124,0.518,0.21,0.025,0.015,0.056,0.082,0.096,226.121,0.271,0.093,0.033,0.049,0.162,0.167,0.223,153.255,0.294,0.108,0.018,0.017,0.14,0.122,0.301,151.606,0.587,0.14,0.024,0.015,0.073,0.086,0.074,CN,1
1,147.934,0.458,0.124,0.02,0.016,0.131,0.105,0.146,180.963,0.36,0.129,0.024,0.023,0.148,0.139,0.176,141.038,0.417,0.117,0.037,0.015,0.128,0.099,0.188,199.558,0.263,0.086,0.034,0.017,0.17,0.166,0.264,237.31,0.486,0.119,0.039,0.016,0.124,0.083,0.133,323.026,0.252,0.143,0.037,0.015,0.18,0.138,0.234,142.899,0.109,0.027,0.005,0.005,0.134,0.164,0.556,50.732,0.712,0.224,0.023,0.008,0.012,0.009,0.012,159.273,0.362,0.153,0.027,0.024,0.146,0.126,0.162,103.225,0.508,0.144,0.021,0.009,0.082,0.098,0.138,138.418,0.435,0.143,0.015,0.008,0.12,0.118,0.161,209.433,0.199,0.132,0.044,0.017,0.185,0.195,0.228,127.343,0.332,0.084,0.014,0.011,0.106,0.115,0.337,192.765,0.499,0.105,0.016,0.029,0.13,0.093,0.127,CN,1
1,134.646,0.618,0.143,0.017,0.013,0.05,0.065,0.094,179.761,0.418,0.12,0.025,0.01,0.098,0.147,0.181,113.591,0.681,0.137,0.012,0.01,0.034,0.051,0.074,142.45,0.643,0.139,0.02,0.01,0.047,0.05,0.091,239.001,0.341,0.131,0.041,0.033,0.131,0.148,0.174,330.189,0.23,0.125,0.077,0.038,0.124,0.157,0.25,234.792,0.055,0.035,0.012,0.01,0.113,0.176,0.597,59.413,0.788,0.169,0.003,0.005,0.011,0.012,0.013,162.681,0.508,0.145,0.014,0.014,0.081,0.099,0.14,102.351,0.611,0.113,0.011,0.014,0.054,0.088,0.108,97.105,0.661,0.184,0.024,0.016,0.036,0.03,0.05,212.384,0.283,0.101,0.06,0.027,0.163,0.162,0.204,140.805,0.331,0.055,0.026,0.022,0.115,0.153,0.298,155.465,0.807,0.063,0.009,0.011,0.037,0.029,0.044,CN,1
1,154.421,0.517,0.271,0.023,0.016,0.048,0.053,0.072,197.017,0.446,0.2,0.04,0.015,0.082,0.095,0.122,134.286,0.513,0.261,0.021,0.011,0.046,0.056,0.092,160.887,0.504,0.214,0.026,0.021,0.058,0.077,0.1,271.159,0.23,0.185,0.029,0.025,0.16,0.153,0.219,303.81,0.251,0.143,0.024,0.028,0.117,0.163,0.275,195.938,0.027,0.022,0.009,0.017,0.103,0.238,0.585,62.899,0.823,0.141,0.007,0.004,0.009,0.009,0.009,156.599,0.574,0.143,0.022,0.025,0.055,0.076,0.106,117.048,0.552,0.206,0.01,0.017,0.052,0.073,0.09,150.053,0.506,0.153,0.015,0.016,0.055,0.105,0.15,227.8,0.293,0.124,0.022,0.014,0.179,0.143,0.225,146.344,0.333,0.068,0.01,0.02,0.093,0.16,0.316,176.455,0.624,0.123,0.011,0.013,0.087,0.054,0.087,CN,1
1,145.414,0.658,0.129,0.008,0.011,0.05,0.068,0.078,200.263,0.35,0.172,0.017,0.021,0.111,0.158,0.17,117.63,0.693,0.131,0.018,0.008,0.037,0.045,0.068,154.172,0.458,0.135,0.017,0.02,0.082,0.101,0.187,242.364,0.312,0.126,0.028,0.023,0.162,0.135,0.215,255.752,0.503,0.122,0.024,0.014,0.093,0.072,0.172,138.106,0.339,0.061,0.002,0.006,0.078,0.105,0.408,63.172,0.774,0.184,0.012,0.005,0.011,0.007,0.007,157.936,0.424,0.189,0.013,0.019,0.103,0.129,0.123,115.631,0.675,0.113,0.014,0.01,0.043,0.068,0.077,164.686,0.496,0.145,0.015,0.022,0.076,0.109,0.137,238.333,0.187,0.15,0.027,0.034,0.174,0.184,0.245,158.082,0.259,0.098,0.016,0.017,0.107,0.143,0.36,223.565,0.476,0.193,0.023,0.026,0.086,0.082,0.113,CN,1
1,157.431,0.442,0.163,0.051,0.042,0.093,0.063,0.145,205.654,0.33,0.172,0.067,0.039,0.112,0.089,0.191,138.149,0.395,0.186,0.043,0.036,0.095,0.097,0.148,149.41,0.431,0.16,0.046,0.028,0.087,0.092,0.156,230.911,0.204,0.284,0.034,0.038,0.126,0.113,0.201,287.197,0.269,0.132,0.015,0.043,0.11,0.151,0.28,202.817,0.053,0.02,0.008,0.008,0.134,0.161,0.616,30.269,0.934,0.058,0.002,0.001,0.002,0.001,0.001,191.826,0.344,0.142,0.072,0.048,0.112,0.104,0.178,128.178,0.339,0.202,0.033,0.046,0.092,0.11,0.178,181.226,0.262,0.168,0.065,0.037,0.108,0.133,0.227,239.289,0.197,0.152,0.027,0.054,0.143,0.184,0.243,163.465,0.148,0.084,0.022,0.028,0.115,0.171,0.431,240.76,0.483,0.138,0.026,0.032,0.107,0.075,0.138,CN,1
1,149.619,0.476,0.189,0.102,0.022,0.055,0.09,0.067,206.174,0.319,0.201,0.14,0.018,0.097,0.13,0.096,119.475,0.553,0.206,0.046,0.014,0.045,0.067,0.069,158.439,0.509,0.147,0.078,0.014,0.073,0.094,0.085,250.264,0.455,0.134,0.031,0.041,0.123,0.113,0.103,311.868,0.262,0.132,0.025,0.044,0.15,0.199,0.187,299.678,0.222,0.079,0.017,0.021,0.098,0.208,0.355,53.837,0.748,0.203,0.016,0.003,0.008,0.011,0.01,161.298,0.528,0.171,0.071,0.008,0.066,0.1,0.057,104.807,0.511,0.205,0.06,0.018,0.046,0.099,0.062,156.706,0.416,0.161,0.077,0.018,0.072,0.176,0.08,222.538,0.291,0.19,0.089,0.035,0.097,0.184,0.114,148.481,0.303,0.113,0.037,0.014,0.111,0.197,0.227,232.332,0.538,0.161,0.007,0.037,0.081,0.071,0.106,CN,1
1,125.456,0.713,0.18,0.011,0.007,0.022,0.032,0.035,173.346,0.521,0.235,0.025,0.009,0.055,0.087,0.067,91.432,0.779,0.161,0.009,0.006,0.01,0.015,0.02,141.952,0.682,0.169,0.009,0.011,0.03,0.049,0.049,243.092,0.452,0.158,0.019,0.049,0.129,0.087,0.106,337.838,0.354,0.175,0.012,0.026,0.154,0.121,0.157,295.399,0.502,0.083,0.032,0.02,0.084,0.117,0.161,64.726,0.795,0.149,0.012,0.006,0.019,0.01,0.009,158.359,0.501,0.264,0.02,0.012,0.052,0.084,0.067,92.972,0.755,0.155,0.011,0.007,0.017,0.025,0.03,142.775,0.68,0.164,0.02,0.011,0.034,0.044,0.048,206.113,0.488,0.169,0.034,0.035,0.098,0.097,0.08,138.498,0.605,0.103,0.026,0.01,0.058,0.08,0.119,236.394,0.44,0.09,0.019,0.018,0.146,0.116,0.171,CN,1
1,131.134,0.724,0.102,0.072,0.013,0.036,0.027,0.025,179.52,0.38,0.159,0.189,0.041,0.081,0.082,0.069,101.26,0.793,0.097,0.035,0.008,0.02,0.023,0.023,137.955,0.61,0.14,0.083,0.02,0.054,0.057,0.036,238.478,0.345,0.189,0.126,0.022,0.13,0.092,0.096,325.465,0.251,0.238,0.07,0.014,0.146,0.128,0.152,324.808,0.182,0.156,0.111,0.024,0.106,0.172,0.25,57.449,0.842,0.094,0.009,0.003,0.009,0.008,0.035,166.742,0.369,0.137,0.214,0.031,0.087,0.087,0.075,104.899,0.736,0.094,0.052,0.015,0.025,0.036,0.042,155.386,0.586,0.11,0.113,0.017,0.047,0.067,0.061,203.943,0.21,0.257,0.102,0.027,0.166,0.129,0.108,162.26,0.297,0.098,0.101,0.033,0.084,0.158,0.228,210.147,0.357,0.121,0.02,0.019,0.11,0.153,0.221,CN,1
1,119.591,0.353,0.042,0.021,0.008,0.072,0.141,0.362,154.264,0.18,0.056,0.02,0.008,0.072,0.194,0.47,96.027,0.435,0.043,0.015,0.005,0.052,0.113,0.337,124.244,0.415,0.032,0.011,0.005,0.034,0.12,0.383,188.584,0.098,0.075,0.025,0.016,0.07,0.215,0.501,181.767,0.181,0.046,0.01,0.004,0.044,0.176,0.538,47.355,0.144,0.099,0.001,0.001,0.04,0.186,0.529,26.348,0.935,0.052,0.003,0.002,0.004,0.003,0.002,145.415,0.23,0.059,0.022,0.007,0.08,0.18,0.422,100.636,0.424,0.036,0.02,0.005,0.058,0.145,0.312,108.706,0.216,0.051,0.019,0.006,0.064,0.181,0.462,156.705,0.072,0.05,0.021,0.02,0.078,0.243,0.515,108.328,0.078,0.051,0.006,0.003,0.135,0.175,0.552,183.456,0.67,0.115,0.016,0.016,0.05,0.058,0.073,CN,1
1,116.414,0.673,0.175,0.007,0.012,0.039,0.055,0.039,168.668,0.437,0.187,0.032,0.023,0.084,0.133,0.104,89.562,0.725,0.16,0.01,0.006,0.026,0.033,0.039,123.943,0.671,0.159,0.013,0.004,0.038,0.056,0.058,231.315,0.524,0.098,0.032,0.037,0.117,0.074,0.118,264.139,0.388,0.135,0.037,0.039,0.107,0.107,0.186,58.206,0.725,0.034,0.007,0.006,0.038,0.063,0.126,37.427,0.827,0.112,0.013,0.006,0.019,0.01,0.012,144.048,0.543,0.154,0.024,0.027,0.072,0.11,0.069,79.06,0.644,0.185,0.012,0.018,0.038,0.057,0.047,92.973,0.787,0.093,0.009,0.008,0.023,0.049,0.031,195.785,0.327,0.146,0.045,0.053,0.118,0.178,0.134,122.324,0.461,0.182,0.027,0.021,0.075,0.131,0.103,244.642,0.597,0.095,0.023,0.024,0.076,0.073,0.112,CN,1
1,115.665,0.629,0.175,0.03,0.007,0.037,0.06,0.063,175.462,0.536,0.192,0.021,0.012,0.054,0.103,0.082,90.703,0.626,0.195,0.024,0.008,0.036,0.046,0.066,137.703,0.637,0.145,0.014,0.007,0.041,0.085,0.072,217.555,0.43,0.162,0.05,0.03,0.122,0.092,0.114,135.882,0.654,0.104,0.034,0.014,0.045,0.052,0.097,117.618,0.523,0.078,0.006,0.012,0.087,0.105,0.19,73.069,0.747,0.169,0.02,0.006,0.024,0.016,0.018,149.346,0.604,0.154,0.023,0.01,0.052,0.089,0.067,73.785,0.78,0.104,0.016,0.006,0.023,0.031,0.039,123.58,0.686,0.121,0.022,0.008,0.034,0.066,0.064,195.95,0.5,0.148,0.026,0.016,0.101,0.1,0.111,128.702,0.74,0.1,0.008,0.01,0.041,0.047,0.054,220.269,0.55,0.142,0.027,0.014,0.078,0.082,0.107,CN,1
1,130.353,0.656,0.131,0.02,0.013,0.052,0.067,0.061,199.553,0.403,0.17,0.048,0.026,0.096,0.117,0.139,97.312,0.72,0.137,0.013,0.016,0.031,0.036,0.047,149.529,0.572,0.133,0.023,0.029,0.052,0.091,0.1,239.996,0.388,0.168,0.059,0.026,0.128,0.102,0.129,191.551,0.449,0.083,0.04,0.031,0.075,0.138,0.183,181.442,0.217,0.251,0.048,0.058,0.132,0.113,0.182,78.457,0.733,0.154,0.014,0.005,0.043,0.023,0.026,170.626,0.488,0.151,0.048,0.019,0.082,0.098,0.114,95.177,0.72,0.099,0.022,0.007,0.041,0.056,0.055,157.267,0.623,0.111,0.037,0.008,0.061,0.074,0.085,216.872,0.421,0.126,0.054,0.033,0.16,0.101,0.104,155.253,0.613,0.1,0.033,0.007,0.081,0.082,0.083,47.718,0.938,0.031,0.002,0.0,0.011,0.007,0.011,CN,1
1,124.717,0.641,0.198,0.036,0.015,0.03,0.04,0.041,186.262,0.548,0.14,0.052,0.017,0.068,0.094,0.082,95.468,0.635,0.227,0.027,0.012,0.023,0.036,0.04,137.04,0.664,0.132,0.032,0.012,0.041,0.057,0.063,236.62,0.279,0.206,0.118,0.008,0.139,0.12,0.13,268.016,0.33,0.146,0.039,0.02,0.116,0.163,0.187,213.733,0.756,0.03,0.018,0.014,0.061,0.047,0.075,73.52,0.73,0.208,0.015,0.004,0.017,0.012,0.015,144.437,0.686,0.099,0.035,0.019,0.048,0.061,0.052,90.991,0.7,0.165,0.034,0.009,0.029,0.033,0.032,148.657,0.65,0.123,0.05,0.013,0.044,0.062,0.058,219.377,0.341,0.149,0.107,0.028,0.17,0.12,0.085,159.757,0.589,0.093,0.061,0.016,0.072,0.077,0.091,137.192,0.647,0.154,0.017,0.019,0.056,0.053,0.053,CN,1
1,123.83,0.582,0.174,0.024,0.016,0.052,0.058,0.094,181.499,0.319,0.217,0.043,0.02,0.12,0.12,0.161,102.88,0.615,0.154,0.027,0.017,0.047,0.046,0.093,132.035,0.624,0.138,0.029,0.011,0.05,0.057,0.092,230.375,0.428,0.112,0.052,0.054,0.137,0.093,0.125,292.455,0.273,0.146,0.025,0.03,0.155,0.152,0.219,230.284,0.138,0.195,0.005,0.01,0.054,0.093,0.506,53.709,0.837,0.132,0.009,0.004,0.009,0.004,0.004,161.903,0.461,0.168,0.028,0.017,0.088,0.101,0.138,101.656,0.573,0.182,0.02,0.014,0.055,0.068,0.089,159.876,0.391,0.177,0.023,0.018,0.081,0.11,0.2,212.545,0.286,0.149,0.054,0.064,0.158,0.116,0.172,166.991,0.421,0.16,0.018,0.017,0.089,0.077,0.217,182.321,0.485,0.167,0.033,0.045,0.095,0.088,0.087,CN,1
1,111.049,0.706,0.147,0.012,0.008,0.021,0.06,0.046,151.934,0.508,0.174,0.018,0.023,0.046,0.119,0.113,86.792,0.783,0.119,0.009,0.007,0.016,0.033,0.032,120.812,0.698,0.106,0.017,0.01,0.027,0.075,0.066,181.954,0.541,0.081,0.024,0.019,0.082,0.118,0.135,208.541,0.488,0.111,0.02,0.012,0.073,0.103,0.192,142.918,0.224,0.021,0.009,0.005,0.053,0.313,0.376,60.293,0.804,0.102,0.008,0.003,0.017,0.024,0.042,146.412,0.548,0.168,0.022,0.022,0.04,0.103,0.098,74.04,0.751,0.132,0.017,0.008,0.021,0.035,0.037,117.147,0.603,0.139,0.02,0.016,0.038,0.088,0.097,172.663,0.42,0.105,0.029,0.018,0.09,0.156,0.182,125.703,0.541,0.091,0.03,0.018,0.049,0.115,0.156,264.026,0.393,0.115,0.014,0.073,0.114,0.124,0.168,CN,1
1,120.393,0.604,0.144,0.009,0.014,0.062,0.08,0.088,173.528,0.466,0.119,0.022,0.019,0.101,0.142,0.132,90.141,0.738,0.096,0.006,0.008,0.041,0.046,0.065,137.866,0.561,0.104,0.009,0.008,0.079,0.108,0.131,219.23,0.459,0.093,0.01,0.015,0.13,0.106,0.187,239.757,0.537,0.06,0.013,0.015,0.1,0.09,0.185,191.754,0.108,0.026,0.008,0.006,0.086,0.217,0.549,70.051,0.756,0.18,0.019,0.004,0.017,0.011,0.012,159.24,0.381,0.18,0.034,0.023,0.105,0.14,0.136,85.971,0.69,0.119,0.011,0.009,0.053,0.057,0.061,140.961,0.498,0.092,0.021,0.016,0.097,0.143,0.133,198.582,0.395,0.078,0.05,0.012,0.146,0.147,0.173,145.844,0.544,0.074,0.025,0.012,0.092,0.119,0.134,242.544,0.342,0.142,0.018,0.036,0.168,0.13,0.165,CN,1
1,132.378,0.503,0.248,0.038,0.009,0.033,0.081,0.088,189.547,0.46,0.162,0.028,0.013,0.062,0.146,0.129,101.832,0.494,0.272,0.045,0.006,0.034,0.074,0.076,145.897,0.384,0.169,0.026,0.008,0.086,0.178,0.148,230.987,0.372,0.144,0.023,0.026,0.145,0.123,0.167,279.933,0.309,0.149,0.016,0.016,0.138,0.138,0.234,209.528,0.056,0.02,0.003,0.008,0.075,0.358,0.481,61.382,0.756,0.204,0.015,0.006,0.008,0.006,0.005,138.92,0.469,0.173,0.029,0.016,0.071,0.12,0.123,89.4,0.697,0.173,0.018,0.01,0.02,0.038,0.043,149.052,0.633,0.139,0.023,0.011,0.028,0.083,0.083,209.715,0.431,0.112,0.025,0.023,0.09,0.157,0.161,154.855,0.659,0.09,0.02,0.008,0.044,0.084,0.095,99.813,0.783,0.149,0.007,0.003,0.021,0.015,0.022,CN,1
1,134.275,0.639,0.14,0.015,0.009,0.034,0.078,0.084,181.979,0.362,0.15,0.032,0.048,0.074,0.171,0.163,100.243,0.848,0.058,0.008,0.004,0.018,0.028,0.036,159.223,0.625,0.092,0.023,0.011,0.035,0.098,0.116,240.108,0.369,0.105,0.075,0.029,0.114,0.125,0.183,302.748,0.218,0.107,0.028,0.028,0.124,0.159,0.335,212.77,0.089,0.018,0.002,0.004,0.078,0.321,0.487,66.972,0.509,0.26,0.015,0.004,0.025,0.042,0.146,143.456,0.396,0.153,0.028,0.04,0.078,0.16,0.145,96.941,0.657,0.166,0.005,0.006,0.033,0.066,0.068,151.461,0.455,0.167,0.015,0.023,0.058,0.134,0.148,206.711,0.389,0.113,0.049,0.028,0.105,0.153,0.164,159.506,0.469,0.125,0.016,0.029,0.07,0.137,0.153,161.043,0.39,0.089,0.016,0.041,0.101,0.154,0.208,CN,1
1,143.763,0.522,0.199,0.024,0.018,0.062,0.089,0.087,195.459,0.305,0.233,0.046,0.016,0.099,0.161,0.139,116.21,0.578,0.196,0.008,0.018,0.048,0.065,0.087,159.763,0.544,0.137,0.009,0.014,0.054,0.122,0.12,258.662,0.26,0.248,0.04,0.035,0.099,0.131,0.188,313.936,0.193,0.181,0.013,0.024,0.11,0.206,0.273,225.636,0.039,0.019,0.003,0.006,0.081,0.355,0.496,56.566,0.669,0.131,0.011,0.004,0.017,0.064,0.105,154.585,0.399,0.205,0.045,0.023,0.085,0.132,0.111,103.603,0.637,0.131,0.032,0.026,0.046,0.061,0.068,161.316,0.486,0.105,0.048,0.024,0.08,0.132,0.124,218.448,0.281,0.162,0.055,0.021,0.146,0.171,0.165,163.742,0.46,0.096,0.044,0.024,0.092,0.129,0.155,217.703,0.302,0.244,0.012,0.028,0.09,0.145,0.18,CN,1
1,119.106,0.623,0.107,0.014,0.008,0.033,0.066,0.148,171.677,0.288,0.151,0.015,0.025,0.068,0.148,0.305,77.334,0.712,0.082,0.009,0.006,0.019,0.044,0.128,129.293,0.524,0.071,0.013,0.005,0.033,0.107,0.246,179.693,0.301,0.145,0.057,0.039,0.091,0.134,0.234,223.053,0.242,0.064,0.015,0.012,0.051,0.184,0.432,45.613,0.845,0.023,0.002,0.003,0.009,0.036,0.082,57.583,0.72,0.213,0.013,0.004,0.015,0.012,0.023,155.359,0.319,0.14,0.02,0.019,0.08,0.146,0.277,89.698,0.591,0.11,0.014,0.008,0.037,0.101,0.14,140.585,0.386,0.122,0.016,0.013,0.068,0.167,0.227,161.549,0.208,0.122,0.028,0.019,0.108,0.193,0.321,127.955,0.31,0.126,0.02,0.012,0.071,0.134,0.327,122.393,0.789,0.046,0.008,0.01,0.035,0.036,0.075,CN,1
1,160.964,0.346,0.178,0.119,0.02,0.077,0.107,0.153,208.827,0.139,0.167,0.17,0.016,0.118,0.126,0.263,110.604,0.561,0.147,0.054,0.014,0.05,0.062,0.114,148.348,0.242,0.128,0.112,0.025,0.098,0.138,0.257,242.892,0.325,0.167,0.057,0.025,0.123,0.098,0.204,297.933,0.276,0.103,0.024,0.024,0.133,0.143,0.297,90.342,0.352,0.032,0.012,0.004,0.067,0.124,0.41,55.38,0.778,0.195,0.005,0.002,0.007,0.006,0.008,196.659,0.211,0.149,0.143,0.028,0.106,0.138,0.224,133.136,0.447,0.152,0.077,0.018,0.069,0.094,0.143,189.287,0.255,0.109,0.128,0.021,0.103,0.16,0.225,209.261,0.31,0.096,0.069,0.042,0.122,0.13,0.23,184.806,0.332,0.099,0.077,0.026,0.104,0.127,0.235,123.339,0.796,0.048,0.006,0.016,0.039,0.046,0.049,CN,1
1,131.487,0.7,0.097,0.021,0.005,0.027,0.061,0.089,187.781,0.405,0.094,0.036,0.027,0.087,0.127,0.225,94.928,0.786,0.089,0.01,0.003,0.017,0.036,0.058,126.939,0.678,0.115,0.014,0.005,0.038,0.055,0.094,241.705,0.342,0.133,0.06,0.049,0.129,0.092,0.195,307.037,0.359,0.096,0.047,0.031,0.094,0.113,0.26,172.988,0.038,0.012,0.002,0.005,0.093,0.192,0.657,62.638,0.761,0.173,0.017,0.006,0.015,0.013,0.015,171.154,0.529,0.085,0.038,0.013,0.066,0.106,0.163,113.043,0.596,0.151,0.02,0.007,0.033,0.071,0.121,168.776,0.318,0.147,0.027,0.023,0.082,0.147,0.256,213.822,0.303,0.141,0.049,0.031,0.162,0.106,0.208,181.421,0.361,0.117,0.032,0.021,0.091,0.136,0.241,208.519,0.3,0.166,0.029,0.025,0.239,0.095,0.146,CN,1
1,105.871,0.724,0.115,0.01,0.005,0.04,0.057,0.049,168.122,0.453,0.182,0.017,0.011,0.093,0.125,0.12,26.236,0.613,0.293,0.004,0.003,0.031,0.031,0.027,126.321,0.699,0.086,0.007,0.01,0.062,0.058,0.079,205.35,0.487,0.19,0.013,0.015,0.113,0.082,0.099,268.544,0.179,0.237,0.031,0.018,0.116,0.191,0.23,234.494,0.203,0.019,0.006,0.008,0.153,0.173,0.438,67.736,0.734,0.193,0.019,0.005,0.013,0.014,0.023,152.814,0.557,0.127,0.024,0.013,0.095,0.098,0.087,66.952,0.762,0.089,0.013,0.006,0.033,0.043,0.053,144.505,0.632,0.094,0.015,0.009,0.07,0.087,0.093,184.456,0.39,0.18,0.026,0.027,0.141,0.104,0.132,140.131,0.584,0.107,0.019,0.012,0.065,0.091,0.122,181.082,0.534,0.083,0.019,0.037,0.1,0.113,0.114,CN,1
1,126.241,0.645,0.153,0.035,0.01,0.056,0.055,0.045,180.951,0.381,0.214,0.063,0.036,0.101,0.1,0.105,32.741,0.86,0.07,0.009,0.007,0.019,0.017,0.018,159.768,0.278,0.215,0.054,0.032,0.13,0.155,0.135,240.282,0.383,0.178,0.023,0.062,0.136,0.112,0.105,253.096,0.208,0.161,0.01,0.073,0.2,0.156,0.192,293.216,0.088,0.08,0.022,0.03,0.231,0.177,0.371,74.511,0.683,0.237,0.014,0.003,0.022,0.019,0.022,149.307,0.408,0.235,0.067,0.04,0.095,0.076,0.079,82.408,0.654,0.14,0.03,0.007,0.051,0.061,0.057,158.219,0.519,0.147,0.046,0.026,0.09,0.09,0.082,197.553,0.314,0.209,0.039,0.061,0.168,0.105,0.104,169.017,0.226,0.196,0.039,0.03,0.176,0.165,0.168,120.864,0.7,0.095,0.026,0.021,0.051,0.038,0.069,CN,1
1,131.069,0.629,0.115,0.081,0.018,0.042,0.055,0.059,180.172,0.513,0.129,0.107,0.033,0.074,0.077,0.068,77.499,0.607,0.203,0.043,0.013,0.031,0.045,0.059,161.028,0.587,0.092,0.1,0.025,0.047,0.084,0.064,241.219,0.258,0.196,0.063,0.058,0.138,0.144,0.143,301.101,0.144,0.235,0.061,0.049,0.159,0.154,0.199,271.488,0.411,0.079,0.053,0.018,0.117,0.119,0.203,62.053,0.819,0.143,0.008,0.003,0.014,0.006,0.006,157.795,0.529,0.139,0.101,0.031,0.062,0.074,0.064,86.238,0.683,0.09,0.062,0.021,0.042,0.039,0.063,139.842,0.569,0.102,0.082,0.034,0.064,0.079,0.07,207.399,0.271,0.196,0.061,0.079,0.136,0.141,0.115,153.829,0.451,0.108,0.071,0.05,0.112,0.097,0.11,186.464,0.457,0.112,0.017,0.02,0.152,0.096,0.147,CN,1
1,155.553,0.701,0.146,0.011,0.006,0.038,0.06,0.038,204.094,0.603,0.125,0.026,0.005,0.076,0.095,0.07,120.683,0.676,0.169,0.017,0.012,0.03,0.049,0.048,180.229,0.61,0.145,0.011,0.019,0.044,0.09,0.081,230.568,0.45,0.142,0.05,0.04,0.124,0.098,0.096,309.529,0.325,0.17,0.028,0.047,0.106,0.144,0.18,317.29,0.199,0.069,0.032,0.072,0.129,0.218,0.28,67.717,0.809,0.159,0.004,0.002,0.012,0.007,0.007,175.32,0.695,0.103,0.021,0.006,0.053,0.076,0.046,84.492,0.888,0.055,0.004,0.003,0.013,0.019,0.018,139.56,0.837,0.06,0.005,0.004,0.023,0.043,0.028,215.532,0.506,0.144,0.012,0.028,0.126,0.115,0.069,142.046,0.794,0.073,0.006,0.012,0.033,0.041,0.04,270.507,0.328,0.147,0.023,0.016,0.141,0.137,0.208,CN,1
1,90.063,0.509,0.263,0.036,0.013,0.042,0.076,0.061,193.141,0.287,0.281,0.067,0.021,0.104,0.156,0.084,110.448,0.584,0.249,0.02,0.01,0.041,0.051,0.045,173.538,0.42,0.259,0.039,0.012,0.079,0.111,0.08,232.138,0.314,0.253,0.085,0.018,0.118,0.103,0.109,293.756,0.303,0.195,0.03,0.028,0.123,0.162,0.159,352.0,0.099,0.146,0.028,0.02,0.155,0.233,0.318,60.422,0.85,0.1,0.01,0.004,0.015,0.01,0.011,171.013,0.326,0.246,0.071,0.027,0.097,0.144,0.089,105.349,0.594,0.228,0.022,0.012,0.041,0.057,0.046,176.075,0.375,0.259,0.044,0.021,0.097,0.133,0.071,231.147,0.143,0.184,0.187,0.026,0.221,0.145,0.093,218.034,0.289,0.196,0.045,0.02,0.189,0.158,0.103,98.744,0.487,0.084,0.02,0.024,0.103,0.104,0.177,CN,1
1,80.839,0.643,0.137,0.024,0.015,0.046,0.075,0.06,189.719,0.461,0.155,0.03,0.027,0.099,0.128,0.1,98.673,0.762,0.133,0.016,0.007,0.023,0.029,0.03,171.587,0.584,0.119,0.017,0.03,0.058,0.099,0.093,235.205,0.442,0.161,0.056,0.029,0.098,0.115,0.1,331.663,0.325,0.147,0.057,0.042,0.103,0.152,0.174,241.819,0.296,0.101,0.041,0.028,0.168,0.139,0.227,66.424,0.778,0.167,0.008,0.007,0.017,0.011,0.012,170.422,0.414,0.169,0.044,0.015,0.119,0.145,0.092,106.15,0.657,0.151,0.038,0.011,0.043,0.051,0.049,160.088,0.581,0.153,0.036,0.017,0.067,0.087,0.059,201.134,0.428,0.157,0.044,0.03,0.136,0.12,0.084,163.689,0.623,0.138,0.048,0.016,0.079,0.046,0.051,85.493,0.906,0.022,0.008,0.004,0.02,0.016,0.025,CN,1
1,109.63,0.449,0.066,0.014,0.022,0.041,0.145,0.263,166.62,0.256,0.082,0.025,0.023,0.065,0.177,0.371,75.473,0.74,0.061,0.006,0.012,0.016,0.051,0.115,126.247,0.367,0.04,0.009,0.02,0.035,0.109,0.421,202.427,0.234,0.149,0.039,0.013,0.121,0.183,0.262,261.016,0.164,0.148,0.011,0.014,0.098,0.21,0.354,62.073,0.02,0.005,0.002,0.002,0.037,0.288,0.646,66.598,0.736,0.191,0.012,0.007,0.01,0.02,0.025,147.328,0.326,0.083,0.032,0.018,0.062,0.16,0.319,81.186,0.713,0.092,0.004,0.009,0.025,0.059,0.097,125.252,0.473,0.083,0.012,0.013,0.046,0.096,0.278,166.698,0.251,0.117,0.019,0.023,0.121,0.171,0.297,113.233,0.485,0.099,0.008,0.008,0.05,0.173,0.177,174.795,0.484,0.055,0.026,0.048,0.112,0.123,0.152,CN,1
1,129.265,0.586,0.14,0.062,0.013,0.055,0.064,0.08,191.823,0.371,0.186,0.103,0.035,0.086,0.128,0.092,80.935,0.683,0.112,0.032,0.005,0.045,0.059,0.063,169.183,0.43,0.114,0.111,0.016,0.084,0.127,0.117,204.621,0.238,0.124,0.231,0.052,0.15,0.096,0.109,239.13,0.19,0.134,0.077,0.05,0.178,0.172,0.199,38.737,0.938,0.019,0.005,0.002,0.01,0.011,0.014,73.875,0.729,0.203,0.016,0.006,0.021,0.013,0.012,167.534,0.419,0.189,0.087,0.031,0.088,0.113,0.073,98.537,0.577,0.169,0.035,0.011,0.051,0.071,0.087,144.804,0.398,0.178,0.083,0.025,0.081,0.133,0.102,162.81,0.139,0.099,0.4,0.076,0.126,0.094,0.066,134.637,0.31,0.141,0.117,0.047,0.114,0.136,0.136,271.783,0.344,0.09,0.037,0.028,0.098,0.164,0.239,CN,1
1,145.478,0.385,0.244,0.028,0.047,0.084,0.105,0.108,182.968,0.316,0.312,0.021,0.066,0.094,0.105,0.087,105.057,0.666,0.068,0.038,0.025,0.061,0.067,0.074,180.717,0.341,0.156,0.023,0.063,0.112,0.162,0.143,237.967,0.445,0.125,0.062,0.047,0.119,0.087,0.115,319.383,0.265,0.109,0.04,0.057,0.168,0.144,0.217,90.04,0.441,0.054,0.022,0.023,0.081,0.166,0.214,94.928,0.736,0.107,0.015,0.009,0.058,0.035,0.041,167.612,0.482,0.245,0.017,0.049,0.068,0.074,0.064,100.357,0.651,0.183,0.017,0.019,0.042,0.039,0.05,148.619,0.581,0.189,0.021,0.032,0.054,0.067,0.057,200.303,0.46,0.127,0.062,0.046,0.13,0.085,0.091,144.237,0.636,0.139,0.021,0.029,0.063,0.054,0.056,237.31,0.178,0.069,0.037,0.07,0.213,0.24,0.192,CN,1
1,38.415,0.765,0.161,0.002,0.002,0.038,0.02,0.011,205.407,0.522,0.2,0.021,0.018,0.08,0.089,0.071,111.837,0.785,0.132,0.006,0.007,0.017,0.024,0.029,198.664,0.558,0.17,0.01,0.015,0.061,0.09,0.096,268.114,0.324,0.169,0.094,0.045,0.117,0.126,0.124,336.456,0.242,0.198,0.014,0.039,0.155,0.143,0.208,241.047,0.181,0.109,0.022,0.017,0.128,0.247,0.297,120.324,0.429,0.12,0.02,0.02,0.197,0.095,0.12,185.573,0.595,0.147,0.022,0.013,0.076,0.081,0.065,100.929,0.785,0.104,0.012,0.007,0.017,0.038,0.038,167.291,0.668,0.122,0.015,0.008,0.052,0.071,0.065,221.051,0.19,0.289,0.071,0.031,0.155,0.168,0.095,168.074,0.483,0.172,0.031,0.01,0.077,0.124,0.104,259.011,0.285,0.13,0.019,0.056,0.16,0.16,0.191,CN,1
1,55.476,0.835,0.063,0.017,0.009,0.02,0.033,0.023,180.196,0.526,0.138,0.067,0.028,0.066,0.094,0.081,94.751,0.887,0.048,0.011,0.007,0.016,0.013,0.017,174.16,0.706,0.098,0.029,0.015,0.044,0.055,0.053,240.432,0.496,0.15,0.027,0.051,0.125,0.075,0.075,312.528,0.318,0.178,0.031,0.048,0.163,0.118,0.144,301.567,0.197,0.109,0.04,0.051,0.144,0.151,0.308,60.759,0.711,0.106,0.005,0.009,0.021,0.061,0.088,160.461,0.509,0.158,0.084,0.024,0.065,0.086,0.074,85.989,0.759,0.114,0.024,0.016,0.022,0.026,0.039,136.703,0.569,0.129,0.052,0.026,0.043,0.077,0.104,197.251,0.502,0.134,0.058,0.033,0.116,0.073,0.085,149.323,0.613,0.115,0.046,0.039,0.065,0.055,0.066,222.131,0.323,0.169,0.013,0.038,0.138,0.134,0.185,CN,1
1,129.384,0.587,0.121,0.025,0.02,0.059,0.09,0.098,215.876,0.355,0.168,0.056,0.026,0.093,0.145,0.157,124.552,0.653,0.112,0.009,0.013,0.057,0.067,0.089,201.2,0.41,0.168,0.037,0.017,0.082,0.134,0.152,254.522,0.412,0.124,0.062,0.03,0.111,0.142,0.119,321.766,0.163,0.189,0.067,0.059,0.127,0.184,0.212,191.823,0.08,0.066,0.021,0.033,0.11,0.129,0.561,64.625,0.775,0.19,0.011,0.006,0.007,0.005,0.005,192.716,0.334,0.193,0.065,0.039,0.102,0.135,0.132,131.138,0.596,0.138,0.01,0.019,0.064,0.077,0.096,202.409,0.375,0.175,0.029,0.028,0.095,0.154,0.144,221.749,0.288,0.146,0.106,0.012,0.156,0.151,0.141,193.084,0.267,0.225,0.042,0.036,0.127,0.159,0.144,238.285,0.456,0.075,0.029,0.028,0.115,0.134,0.163,CN,1
1,121.025,0.56,0.146,0.011,0.014,0.052,0.065,0.152,170.347,0.319,0.146,0.019,0.034,0.095,0.133,0.254,93.427,0.562,0.177,0.011,0.011,0.032,0.064,0.143,158.079,0.311,0.131,0.016,0.014,0.079,0.164,0.286,215.452,0.248,0.142,0.061,0.032,0.113,0.104,0.3,192.512,0.641,0.045,0.019,0.01,0.042,0.071,0.171,62.062,0.849,0.03,0.002,0.003,0.014,0.018,0.083,69.273,0.817,0.141,0.006,0.002,0.019,0.007,0.008,164.624,0.321,0.158,0.024,0.031,0.102,0.124,0.24,96.16,0.616,0.099,0.009,0.014,0.044,0.066,0.153,143.145,0.402,0.114,0.011,0.028,0.076,0.108,0.261,192.001,0.216,0.145,0.07,0.036,0.101,0.132,0.299,133.762,0.213,0.077,0.013,0.026,0.127,0.172,0.373,248.445,0.223,0.097,0.033,0.106,0.171,0.152,0.219,CN,1
1,132.842,0.684,0.129,0.031,0.016,0.036,0.054,0.051,184.87,0.429,0.227,0.049,0.03,0.083,0.102,0.08,106.403,0.685,0.164,0.014,0.017,0.027,0.04,0.052,156.678,0.622,0.135,0.018,0.023,0.051,0.076,0.075,202.295,0.522,0.155,0.05,0.05,0.083,0.076,0.064,227.822,0.763,0.053,0.018,0.019,0.041,0.05,0.056,44.517,0.983,0.012,0.0,0.0,0.001,0.001,0.003,73.188,0.774,0.183,0.008,0.004,0.016,0.008,0.007,174.015,0.5,0.199,0.051,0.02,0.074,0.093,0.064,94.952,0.682,0.141,0.021,0.015,0.045,0.042,0.055,154.87,0.557,0.164,0.038,0.015,0.076,0.08,0.071,193.182,0.408,0.163,0.037,0.033,0.139,0.123,0.095,142.701,0.599,0.141,0.022,0.012,0.081,0.073,0.072,252.017,0.319,0.08,0.026,0.031,0.147,0.185,0.213,CN,1
1,130.77,0.388,0.098,0.066,0.049,0.105,0.16,0.134,182.668,0.344,0.127,0.08,0.052,0.123,0.154,0.121,95.997,0.249,0.189,0.048,0.028,0.08,0.243,0.164,162.113,0.193,0.175,0.073,0.033,0.136,0.224,0.165,229.79,0.321,0.178,0.016,0.065,0.183,0.108,0.128,311.201,0.173,0.152,0.046,0.053,0.154,0.16,0.26,98.872,0.321,0.06,0.015,0.021,0.123,0.11,0.35,55.831,0.746,0.142,0.005,0.004,0.021,0.033,0.05,155.77,0.388,0.132,0.087,0.062,0.095,0.126,0.109,81.491,0.649,0.114,0.03,0.02,0.047,0.068,0.072,129.495,0.509,0.096,0.057,0.042,0.075,0.115,0.105,178.213,0.326,0.12,0.048,0.096,0.206,0.11,0.095,131.654,0.466,0.124,0.057,0.039,0.12,0.095,0.098,211.308,0.203,0.121,0.031,0.092,0.144,0.177,0.231,CN,1
1,101.807,0.763,0.15,0.034,0.009,0.012,0.02,0.012,145.311,0.6,0.133,0.077,0.022,0.049,0.079,0.04,72.388,0.803,0.152,0.017,0.004,0.006,0.01,0.009,135.269,0.699,0.156,0.042,0.011,0.02,0.044,0.027,199.953,0.562,0.12,0.044,0.031,0.091,0.077,0.074,304.31,0.387,0.095,0.081,0.064,0.103,0.115,0.154,208.324,0.489,0.085,0.032,0.014,0.084,0.103,0.193,49.497,0.826,0.084,0.006,0.004,0.01,0.025,0.045,123.616,0.62,0.123,0.072,0.031,0.051,0.067,0.036,56.076,0.784,0.14,0.026,0.008,0.012,0.018,0.012,94.02,0.739,0.107,0.043,0.017,0.028,0.043,0.022,150.181,0.546,0.104,0.061,0.03,0.125,0.087,0.046,96.937,0.77,0.062,0.029,0.018,0.044,0.043,0.033,153.828,0.632,0.065,0.011,0.046,0.083,0.075,0.087,CN,1
1,136.638,0.426,0.206,0.064,0.049,0.07,0.094,0.09,173.426,0.325,0.223,0.07,0.06,0.091,0.136,0.095,112.554,0.585,0.182,0.045,0.022,0.038,0.062,0.066,192.433,0.354,0.21,0.062,0.036,0.097,0.136,0.105,227.405,0.306,0.24,0.072,0.034,0.14,0.108,0.099,315.625,0.295,0.206,0.034,0.033,0.124,0.138,0.17,277.166,0.394,0.109,0.074,0.02,0.094,0.103,0.207,47.223,0.859,0.103,0.011,0.007,0.006,0.006,0.008,152.978,0.374,0.204,0.063,0.058,0.089,0.128,0.084,73.061,0.665,0.162,0.027,0.028,0.034,0.036,0.048,116.771,0.583,0.157,0.041,0.039,0.05,0.07,0.06,168.752,0.383,0.202,0.053,0.056,0.139,0.105,0.061,119.706,0.562,0.158,0.037,0.035,0.061,0.071,0.075,59.395,0.91,0.038,0.001,0.003,0.013,0.015,0.021,CN,1
1,145.445,0.7,0.066,0.037,0.025,0.045,0.061,0.066,186.242,0.537,0.11,0.04,0.043,0.084,0.104,0.081,119.711,0.728,0.092,0.016,0.015,0.039,0.049,0.062,190.663,0.522,0.097,0.042,0.024,0.075,0.118,0.122,239.702,0.425,0.192,0.041,0.022,0.142,0.069,0.11,326.481,0.287,0.16,0.036,0.023,0.179,0.12,0.196,324.478,0.24,0.103,0.015,0.024,0.093,0.203,0.321,62.164,0.819,0.079,0.008,0.006,0.02,0.026,0.042,174.93,0.61,0.087,0.038,0.037,0.067,0.087,0.074,86.905,0.801,0.055,0.018,0.013,0.028,0.041,0.044,136.567,0.72,0.049,0.026,0.022,0.051,0.071,0.062,195.384,0.403,0.201,0.029,0.043,0.135,0.099,0.089,141.87,0.662,0.081,0.024,0.023,0.062,0.064,0.084,102.504,0.477,0.084,0.004,0.026,0.15,0.103,0.156,CN,1
1,119.939,0.669,0.239,0.015,0.005,0.029,0.021,0.022,153.572,0.572,0.222,0.022,0.012,0.063,0.056,0.053,84.025,0.763,0.191,0.007,0.003,0.011,0.01,0.014,171.603,0.663,0.197,0.015,0.006,0.037,0.042,0.041,209.01,0.476,0.137,0.038,0.036,0.13,0.093,0.089,306.611,0.222,0.177,0.06,0.031,0.144,0.173,0.194,131.251,0.869,0.062,0.005,0.007,0.014,0.013,0.03,57.556,0.782,0.16,0.006,0.002,0.014,0.017,0.019,139.631,0.577,0.236,0.023,0.018,0.055,0.046,0.045,63.567,0.665,0.257,0.021,0.005,0.021,0.013,0.019,100.145,0.629,0.228,0.026,0.011,0.038,0.031,0.037,156.537,0.499,0.132,0.034,0.037,0.115,0.096,0.088,96.419,0.641,0.153,0.022,0.013,0.05,0.058,0.063,76.578,0.851,0.095,0.016,0.008,0.014,0.008,0.007,CN,1
1,146.962,0.64,0.191,0.012,0.014,0.034,0.053,0.056,183.101,0.533,0.184,0.02,0.023,0.06,0.095,0.085,116.496,0.696,0.175,0.014,0.012,0.027,0.029,0.047,208.396,0.558,0.144,0.024,0.018,0.061,0.086,0.108,245.254,0.419,0.192,0.043,0.025,0.129,0.086,0.105,326.575,0.202,0.139,0.059,0.008,0.192,0.166,0.234,200.914,0.343,0.099,0.023,0.016,0.122,0.145,0.252,63.772,0.834,0.134,0.006,0.002,0.008,0.007,0.009,169.21,0.609,0.167,0.017,0.021,0.051,0.067,0.069,92.26,0.755,0.122,0.011,0.008,0.027,0.033,0.044,138.62,0.705,0.105,0.017,0.009,0.045,0.054,0.064,204.931,0.399,0.174,0.031,0.036,0.15,0.108,0.102,149.261,0.664,0.074,0.022,0.015,0.073,0.067,0.085,145.232,0.388,0.108,0.035,0.052,0.118,0.115,0.184,CN,1
1,118.682,0.642,0.222,0.028,0.009,0.037,0.03,0.033,165.718,0.361,0.31,0.064,0.014,0.108,0.078,0.065,83.785,0.77,0.179,0.006,0.005,0.01,0.015,0.016,157.774,0.582,0.234,0.029,0.011,0.042,0.056,0.047,205.183,0.524,0.152,0.047,0.028,0.081,0.082,0.085,261.855,0.311,0.242,0.015,0.024,0.111,0.139,0.157,182.212,0.344,0.135,0.033,0.013,0.111,0.149,0.216,64.768,0.726,0.221,0.021,0.007,0.01,0.008,0.008,154.557,0.443,0.237,0.062,0.013,0.096,0.083,0.066,81.601,0.739,0.11,0.021,0.007,0.039,0.039,0.046,129.987,0.627,0.108,0.046,0.005,0.07,0.083,0.061,177.161,0.488,0.143,0.036,0.041,0.117,0.108,0.068,129.74,0.604,0.122,0.044,0.007,0.082,0.07,0.071,216.228,0.331,0.144,0.024,0.016,0.152,0.155,0.179,CN,1
1,121.083,0.714,0.108,0.015,0.009,0.04,0.055,0.059,165.921,0.456,0.15,0.033,0.024,0.098,0.123,0.117,95.001,0.852,0.069,0.005,0.004,0.017,0.021,0.033,154.625,0.682,0.087,0.012,0.008,0.054,0.066,0.091,197.856,0.553,0.114,0.019,0.015,0.072,0.108,0.12,212.828,0.583,0.061,0.012,0.005,0.066,0.113,0.16,43.334,0.962,0.011,0.001,0.001,0.003,0.009,0.014,53.885,0.89,0.082,0.008,0.005,0.007,0.003,0.005,148.029,0.478,0.158,0.031,0.023,0.085,0.121,0.106,82.616,0.704,0.129,0.008,0.015,0.035,0.043,0.065,130.111,0.532,0.131,0.013,0.015,0.07,0.124,0.116,164.936,0.521,0.117,0.028,0.016,0.08,0.119,0.119,121.516,0.476,0.072,0.028,0.009,0.057,0.139,0.219,279.416,0.358,0.117,0.025,0.034,0.174,0.104,0.188,CN,1
1,120.46,0.57,0.131,0.016,0.006,0.05,0.094,0.131,148.81,0.404,0.157,0.026,0.01,0.061,0.148,0.194,100.206,0.737,0.11,0.011,0.006,0.025,0.044,0.066,153.754,0.49,0.095,0.026,0.011,0.047,0.144,0.187,196.548,0.408,0.121,0.025,0.032,0.113,0.102,0.2,249.033,0.187,0.132,0.025,0.043,0.075,0.177,0.362,160.061,0.031,0.011,0.002,0.007,0.06,0.387,0.501,94.176,0.618,0.317,0.008,0.005,0.02,0.019,0.013,128.826,0.479,0.139,0.026,0.007,0.056,0.126,0.167,62.784,0.743,0.11,0.015,0.005,0.027,0.041,0.06,102.233,0.632,0.12,0.013,0.007,0.044,0.081,0.103,157.961,0.454,0.108,0.026,0.03,0.082,0.121,0.179,103.677,0.515,0.067,0.012,0.009,0.042,0.179,0.176,78.818,0.731,0.127,0.008,0.012,0.035,0.03,0.057,CN,2
1,139.626,0.241,0.082,0.011,0.013,0.097,0.273,0.283,169.57,0.354,0.086,0.012,0.012,0.077,0.235,0.224,156.787,0.277,0.047,0.006,0.016,0.075,0.261,0.32,187.604,0.256,0.08,0.008,0.009,0.096,0.285,0.266,212.547,0.376,0.129,0.02,0.024,0.071,0.158,0.222,209.273,0.51,0.096,0.016,0.019,0.051,0.13,0.179,166.597,0.027,0.007,0.001,0.001,0.079,0.379,0.505,97.108,0.652,0.259,0.019,0.009,0.023,0.023,0.015,143.648,0.324,0.105,0.013,0.009,0.077,0.248,0.224,79.95,0.406,0.036,0.006,0.009,0.071,0.252,0.221,131.099,0.237,0.056,0.015,0.015,0.072,0.336,0.27,182.37,0.18,0.099,0.039,0.029,0.113,0.282,0.258,134.201,0.252,0.037,0.011,0.02,0.093,0.242,0.346,77.199,0.402,0.089,0.013,0.009,0.106,0.132,0.25,CN,2
1,134.823,0.174,0.128,0.015,0.01,0.046,0.244,0.383,141.218,0.184,0.098,0.014,0.006,0.048,0.248,0.401,97.661,0.43,0.093,0.011,0.005,0.034,0.146,0.281,144.286,0.136,0.068,0.012,0.009,0.052,0.25,0.474,174.337,0.203,0.127,0.01,0.013,0.066,0.219,0.362,168.236,0.321,0.07,0.009,0.009,0.054,0.147,0.39,54.129,0.403,0.047,0.002,0.002,0.034,0.206,0.305,79.682,0.623,0.228,0.012,0.002,0.014,0.034,0.087,135.829,0.247,0.096,0.016,0.007,0.043,0.224,0.368,102.796,0.419,0.105,0.016,0.008,0.043,0.159,0.25,137.6,0.284,0.087,0.015,0.009,0.041,0.208,0.354,142.476,0.26,0.094,0.011,0.009,0.059,0.218,0.348,102.79,0.229,0.104,0.011,0.004,0.08,0.164,0.408,111.124,0.66,0.115,0.031,0.02,0.048,0.06,0.067,CN,2
1,197.68,0.262,0.088,0.016,0.027,0.13,0.198,0.279,223.073,0.22,0.123,0.019,0.03,0.104,0.195,0.309,117.628,0.231,0.09,0.024,0.018,0.11,0.206,0.321,217.213,0.208,0.078,0.016,0.032,0.101,0.271,0.295,250.907,0.304,0.134,0.022,0.019,0.083,0.165,0.272,264.324,0.197,0.137,0.012,0.024,0.095,0.184,0.351,91.861,0.248,0.022,0.008,0.014,0.056,0.215,0.437,76.555,0.737,0.212,0.018,0.006,0.011,0.009,0.007,212.819,0.191,0.128,0.022,0.028,0.116,0.224,0.291,149.226,0.219,0.064,0.016,0.024,0.127,0.242,0.308,222.376,0.144,0.077,0.01,0.028,0.139,0.284,0.318,218.351,0.167,0.11,0.031,0.031,0.133,0.207,0.321,210.509,0.169,0.082,0.014,0.023,0.141,0.25,0.32,205.882,0.19,0.103,0.035,0.04,0.147,0.177,0.308,CN,2
1,147.671,0.527,0.205,0.025,0.012,0.057,0.063,0.112,206.175,0.289,0.187,0.03,0.012,0.114,0.137,0.232,109.102,0.617,0.202,0.016,0.008,0.036,0.045,0.076,191.981,0.425,0.165,0.01,0.007,0.087,0.106,0.201,247.525,0.246,0.169,0.013,0.073,0.09,0.13,0.279,299.922,0.183,0.134,0.024,0.042,0.088,0.156,0.374,177.05,0.047,0.023,0.004,0.004,0.082,0.225,0.615,74.553,0.769,0.184,0.007,0.003,0.015,0.011,0.011,197.262,0.38,0.146,0.032,0.016,0.102,0.123,0.2,118.508,0.593,0.194,0.021,0.014,0.039,0.056,0.083,197.674,0.382,0.139,0.03,0.02,0.082,0.152,0.195,225.989,0.212,0.124,0.017,0.039,0.131,0.164,0.313,224.49,0.231,0.102,0.039,0.038,0.103,0.177,0.31,144.461,0.684,0.083,0.031,0.017,0.063,0.05,0.071,CN,2
1,125.985,0.751,0.07,0.009,0.008,0.038,0.05,0.074,172.73,0.49,0.112,0.024,0.018,0.089,0.113,0.155,107.679,0.807,0.058,0.01,0.006,0.029,0.03,0.061,168.376,0.659,0.064,0.009,0.008,0.058,0.068,0.134,225.324,0.47,0.094,0.026,0.029,0.127,0.106,0.148,306.169,0.276,0.108,0.027,0.031,0.157,0.158,0.242,224.246,0.039,0.02,0.003,0.004,0.112,0.217,0.606,75.687,0.753,0.207,0.015,0.004,0.011,0.005,0.005,175.793,0.405,0.125,0.022,0.026,0.094,0.139,0.188,101.969,0.805,0.047,0.013,0.003,0.033,0.036,0.063,171.683,0.601,0.064,0.013,0.012,0.065,0.111,0.135,221.554,0.195,0.139,0.026,0.034,0.182,0.186,0.238,224.222,0.247,0.12,0.029,0.039,0.119,0.172,0.274,224.425,0.255,0.098,0.011,0.008,0.144,0.198,0.286,CN,2
1,151.106,0.482,0.237,0.052,0.014,0.061,0.069,0.084,200.293,0.307,0.187,0.065,0.03,0.11,0.136,0.167,120.726,0.631,0.224,0.029,0.007,0.028,0.032,0.049,203.793,0.335,0.183,0.045,0.022,0.1,0.119,0.197,244.595,0.374,0.135,0.037,0.035,0.12,0.098,0.201,299.817,0.321,0.09,0.023,0.049,0.124,0.149,0.244,225.984,0.025,0.016,0.006,0.006,0.152,0.166,0.63,75.677,0.824,0.124,0.01,0.008,0.016,0.008,0.011,189.173,0.362,0.166,0.073,0.03,0.09,0.124,0.155,126.548,0.585,0.191,0.034,0.011,0.047,0.048,0.083,190.379,0.47,0.136,0.045,0.023,0.077,0.116,0.133,212.578,0.324,0.131,0.034,0.052,0.163,0.126,0.17,193.476,0.539,0.096,0.024,0.033,0.088,0.088,0.131,85.723,0.572,0.066,0.025,0.011,0.069,0.095,0.161,CN,2
1,204.904,0.317,0.128,0.013,0.025,0.158,0.161,0.197,220.439,0.281,0.124,0.032,0.025,0.172,0.144,0.222,158.263,0.536,0.141,0.005,0.016,0.077,0.083,0.142,219.99,0.338,0.113,0.021,0.014,0.148,0.138,0.227,245.212,0.308,0.122,0.071,0.037,0.118,0.139,0.205,278.345,0.281,0.07,0.043,0.056,0.151,0.166,0.232,240.288,0.041,0.021,0.005,0.012,0.176,0.181,0.564,87.167,0.647,0.248,0.024,0.006,0.031,0.024,0.021,212.918,0.349,0.126,0.028,0.035,0.136,0.136,0.19,169.644,0.463,0.129,0.012,0.028,0.097,0.11,0.161,213.456,0.398,0.082,0.02,0.04,0.132,0.136,0.192,221.799,0.299,0.111,0.042,0.044,0.16,0.139,0.205,196.259,0.431,0.093,0.024,0.048,0.111,0.112,0.181,97.098,0.832,0.023,0.004,0.011,0.04,0.032,0.058,CN,2
1,129.773,0.405,0.251,0.03,0.011,0.092,0.124,0.087,175.211,0.3,0.239,0.02,0.021,0.136,0.178,0.106,99.451,0.541,0.222,0.02,0.013,0.04,0.086,0.079,164.871,0.282,0.246,0.024,0.011,0.108,0.185,0.144,209.268,0.3,0.135,0.067,0.038,0.179,0.141,0.139,258.067,0.181,0.152,0.05,0.032,0.212,0.16,0.214,305.432,0.077,0.072,0.026,0.033,0.138,0.255,0.398,63.618,0.726,0.194,0.019,0.005,0.012,0.018,0.026,168.164,0.327,0.241,0.02,0.02,0.133,0.159,0.101,100.682,0.429,0.219,0.016,0.019,0.061,0.135,0.121,157.466,0.27,0.24,0.016,0.021,0.115,0.185,0.152,190.311,0.198,0.153,0.1,0.092,0.178,0.147,0.131,172.303,0.29,0.217,0.047,0.041,0.114,0.161,0.128,189.375,0.375,0.114,0.022,0.014,0.117,0.157,0.202,CN,2
1,153.789,0.398,0.253,0.025,0.026,0.096,0.107,0.095,163.89,0.361,0.235,0.022,0.029,0.134,0.124,0.095,136.158,0.434,0.241,0.014,0.028,0.095,0.097,0.09,170.957,0.328,0.261,0.022,0.021,0.135,0.121,0.113,185.336,0.355,0.184,0.038,0.032,0.169,0.109,0.113,220.477,0.281,0.213,0.015,0.025,0.196,0.142,0.127,245.525,0.139,0.236,0.013,0.019,0.195,0.21,0.188,85.994,0.717,0.217,0.014,0.005,0.024,0.012,0.011,164.529,0.331,0.239,0.035,0.041,0.121,0.127,0.105,119.507,0.424,0.215,0.017,0.037,0.089,0.119,0.099,162.836,0.323,0.226,0.03,0.059,0.116,0.131,0.114,168.013,0.274,0.194,0.034,0.077,0.204,0.11,0.107,154.47,0.315,0.26,0.025,0.067,0.115,0.118,0.1,178.758,0.574,0.082,0.021,0.055,0.093,0.077,0.099,CN,2
1,150.95,0.551,0.144,0.025,0.012,0.074,0.093,0.1,195.806,0.376,0.195,0.041,0.023,0.099,0.121,0.145,113.902,0.636,0.133,0.027,0.008,0.052,0.059,0.086,192.428,0.428,0.146,0.06,0.012,0.093,0.135,0.126,223.714,0.325,0.184,0.042,0.034,0.151,0.126,0.139,280.086,0.284,0.185,0.036,0.03,0.104,0.158,0.203,344.129,0.125,0.11,0.027,0.012,0.188,0.212,0.325,75.685,0.668,0.222,0.015,0.008,0.014,0.03,0.043,186.824,0.435,0.168,0.034,0.024,0.109,0.132,0.098,117.754,0.51,0.109,0.015,0.017,0.086,0.135,0.128,147.58,0.32,0.097,0.028,0.031,0.135,0.233,0.156,219.85,0.262,0.143,0.035,0.089,0.151,0.187,0.134,209.315,0.283,0.12,0.018,0.051,0.147,0.172,0.209,221.281,0.256,0.166,0.05,0.071,0.113,0.173,0.171,CN,2
1,183.086,0.35,0.178,0.045,0.035,0.127,0.142,0.122,219.145,0.257,0.204,0.043,0.03,0.158,0.168,0.139,143.403,0.476,0.094,0.036,0.029,0.124,0.11,0.132,243.733,0.255,0.151,0.036,0.024,0.157,0.201,0.176,262.458,0.342,0.191,0.066,0.027,0.138,0.122,0.115,321.932,0.23,0.189,0.044,0.031,0.165,0.162,0.179,356.098,0.205,0.124,0.024,0.046,0.136,0.164,0.3,58.719,0.767,0.13,0.01,0.005,0.025,0.015,0.05,206.899,0.312,0.165,0.062,0.032,0.137,0.156,0.135,134.74,0.344,0.105,0.049,0.016,0.122,0.2,0.164,84.914,0.74,0.122,0.007,0.003,0.049,0.048,0.032,242.97,0.26,0.152,0.06,0.053,0.207,0.151,0.117,218.873,0.28,0.144,0.056,0.014,0.175,0.157,0.174,238.608,0.343,0.141,0.017,0.05,0.123,0.147,0.18,CN,2
1,182.247,0.578,0.145,0.035,0.023,0.079,0.079,0.061,222.248,0.43,0.182,0.022,0.033,0.124,0.126,0.084,146.011,0.69,0.124,0.018,0.007,0.047,0.054,0.059,227.977,0.452,0.147,0.023,0.019,0.12,0.14,0.099,260.57,0.411,0.098,0.055,0.057,0.123,0.147,0.109,334.84,0.297,0.122,0.031,0.015,0.133,0.208,0.194,296.728,0.273,0.109,0.036,0.027,0.137,0.177,0.241,61.998,0.656,0.26,0.033,0.006,0.018,0.014,0.013,210.871,0.461,0.175,0.023,0.027,0.108,0.119,0.087,141.981,0.57,0.121,0.029,0.02,0.072,0.1,0.087,165.733,0.394,0.126,0.032,0.032,0.119,0.18,0.118,243.672,0.218,0.13,0.118,0.058,0.189,0.167,0.12,240.266,0.313,0.181,0.05,0.03,0.136,0.176,0.115,180.343,0.194,0.083,0.015,0.024,0.228,0.229,0.226,CN,2
1,144.235,0.573,0.183,0.04,0.018,0.062,0.063,0.062,200.692,0.392,0.232,0.045,0.027,0.093,0.109,0.103,111.116,0.723,0.13,0.024,0.009,0.031,0.036,0.047,195.056,0.551,0.162,0.027,0.02,0.061,0.093,0.086,262.423,0.215,0.168,0.062,0.027,0.246,0.128,0.154,311.185,0.285,0.146,0.056,0.032,0.146,0.165,0.17,271.794,0.423,0.067,0.01,0.012,0.108,0.161,0.22,93.719,0.721,0.216,0.023,0.009,0.013,0.009,0.009,193.667,0.298,0.297,0.049,0.03,0.109,0.126,0.092,110.314,0.668,0.128,0.023,0.017,0.042,0.068,0.054,187.606,0.409,0.174,0.026,0.029,0.105,0.163,0.094,246.789,0.151,0.2,0.046,0.061,0.179,0.233,0.131,247.577,0.239,0.164,0.029,0.05,0.147,0.211,0.16,214.343,0.564,0.08,0.026,0.029,0.086,0.082,0.134,CN,2
1,128.013,0.685,0.176,0.013,0.021,0.035,0.041,0.029,183.61,0.415,0.258,0.056,0.039,0.078,0.097,0.055,92.734,0.737,0.19,0.005,0.012,0.017,0.022,0.018,167.378,0.621,0.174,0.013,0.022,0.051,0.074,0.045,258.267,0.362,0.179,0.048,0.044,0.148,0.113,0.105,291.711,0.304,0.187,0.047,0.058,0.133,0.12,0.15,319.641,0.236,0.092,0.035,0.049,0.153,0.197,0.237,122.619,0.643,0.253,0.007,0.003,0.038,0.028,0.028,146.464,0.6,0.142,0.051,0.042,0.063,0.061,0.042,95.456,0.76,0.122,0.012,0.018,0.026,0.032,0.03,159.094,0.62,0.119,0.027,0.037,0.061,0.081,0.055,209.369,0.262,0.182,0.108,0.061,0.203,0.101,0.084,173.749,0.492,0.21,0.045,0.046,0.081,0.074,0.053,207.71,0.364,0.12,0.023,0.041,0.136,0.128,0.187,CN,2
1,115.197,0.788,0.077,0.01,0.006,0.031,0.041,0.047,161.014,0.622,0.144,0.01,0.01,0.066,0.069,0.079,22.344,0.979,0.016,0.001,0.001,0.001,0.001,0.002,143.859,0.555,0.08,0.033,0.037,0.073,0.096,0.126,223.116,0.456,0.197,0.021,0.054,0.087,0.081,0.104,204.189,0.768,0.078,0.012,0.01,0.036,0.043,0.054,208.723,0.202,0.08,0.025,0.012,0.066,0.206,0.408,125.378,0.689,0.182,0.008,0.009,0.051,0.035,0.026,154.518,0.512,0.195,0.012,0.02,0.078,0.092,0.09,27.069,0.938,0.054,0.003,0.0,0.001,0.001,0.002,142.103,0.631,0.138,0.011,0.015,0.053,0.076,0.075,202.428,0.497,0.109,0.044,0.048,0.078,0.105,0.12,150.116,0.692,0.094,0.009,0.022,0.045,0.075,0.064,250.199,0.257,0.122,0.021,0.029,0.15,0.188,0.234,CN,2
1,149.695,0.309,0.122,0.007,0.018,0.085,0.149,0.311,173.196,0.228,0.104,0.018,0.011,0.112,0.174,0.353,51.303,0.538,0.102,0.003,0.013,0.044,0.091,0.209,162.544,0.166,0.099,0.005,0.023,0.085,0.245,0.378,220.571,0.361,0.073,0.022,0.021,0.113,0.117,0.293,225.037,0.261,0.055,0.01,0.007,0.077,0.163,0.427,49.856,0.646,0.039,0.001,0.0,0.025,0.079,0.211,78.53,0.652,0.179,0.017,0.01,0.037,0.048,0.056,164.703,0.298,0.122,0.019,0.012,0.101,0.142,0.306,53.579,0.585,0.109,0.006,0.012,0.058,0.069,0.16,158.068,0.265,0.117,0.012,0.013,0.111,0.145,0.336,182.859,0.324,0.085,0.027,0.026,0.109,0.121,0.309,158.464,0.229,0.074,0.016,0.013,0.09,0.172,0.407,239.026,0.201,0.15,0.032,0.087,0.264,0.131,0.134,CN,2
1,88.034,0.457,0.114,0.037,0.017,0.075,0.152,0.148,128.453,0.295,0.117,0.052,0.026,0.111,0.214,0.184,26.781,0.344,0.094,0.012,0.01,0.05,0.231,0.26,109.928,0.142,0.068,0.024,0.018,0.059,0.36,0.329,87.894,0.375,0.082,0.036,0.01,0.146,0.148,0.203,149.791,0.213,0.079,0.009,0.015,0.197,0.213,0.274,61.512,0.398,0.02,0.006,0.006,0.043,0.241,0.286,69.18,0.824,0.111,0.013,0.006,0.02,0.013,0.013,138.488,0.285,0.119,0.055,0.025,0.114,0.231,0.17,28.392,0.4,0.046,0.021,0.012,0.043,0.327,0.152,136.07,0.288,0.063,0.034,0.014,0.116,0.255,0.231,140.784,0.239,0.132,0.031,0.01,0.196,0.185,0.207,129.534,0.287,0.084,0.028,0.013,0.137,0.248,0.202,201.449,0.607,0.096,0.015,0.018,0.106,0.074,0.084,CN,2
1,72.113,0.648,0.127,0.036,0.021,0.057,0.068,0.044,112.084,0.591,0.163,0.04,0.025,0.067,0.072,0.041,39.822,0.848,0.07,0.009,0.011,0.018,0.025,0.019,125.741,0.548,0.179,0.036,0.025,0.064,0.088,0.06,80.171,0.64,0.158,0.034,0.032,0.052,0.047,0.037,149.493,0.59,0.163,0.042,0.038,0.064,0.059,0.045,98.634,0.42,0.077,0.027,0.021,0.05,0.254,0.151,100.512,0.432,0.112,0.051,0.025,0.168,0.125,0.087,96.962,0.584,0.193,0.034,0.026,0.061,0.063,0.039,22.107,0.886,0.043,0.012,0.008,0.018,0.017,0.016,127.052,0.57,0.156,0.035,0.026,0.073,0.084,0.057,119.476,0.587,0.142,0.044,0.031,0.071,0.075,0.049,120.4,0.61,0.147,0.033,0.027,0.054,0.076,0.053,223.251,0.484,0.132,0.034,0.052,0.09,0.095,0.113,CN,2
1,151.988,0.412,0.251,0.056,0.03,0.04,0.089,0.121,197.155,0.251,0.16,0.069,0.039,0.075,0.193,0.213,72.926,0.484,0.3,0.038,0.021,0.027,0.049,0.08,191.918,0.278,0.18,0.064,0.022,0.072,0.178,0.206,153.012,0.393,0.141,0.017,0.058,0.078,0.127,0.187,311.99,0.227,0.076,0.022,0.043,0.109,0.189,0.334,199.376,0.032,0.011,0.011,0.01,0.06,0.298,0.579,101.78,0.438,0.303,0.086,0.025,0.055,0.049,0.045,169.964,0.286,0.133,0.063,0.048,0.06,0.198,0.213,54.815,0.541,0.231,0.033,0.025,0.027,0.064,0.08,194.737,0.27,0.148,0.049,0.076,0.059,0.184,0.214,207.815,0.259,0.082,0.045,0.121,0.089,0.198,0.206,207.056,0.198,0.08,0.056,0.114,0.079,0.221,0.251,174.611,0.149,0.071,0.011,0.014,0.151,0.274,0.331,CN,2
1,131.109,0.488,0.216,0.03,0.01,0.048,0.081,0.126,171.924,0.271,0.177,0.023,0.016,0.09,0.168,0.255,96.262,0.613,0.209,0.026,0.009,0.02,0.046,0.077,173.299,0.344,0.13,0.026,0.011,0.056,0.152,0.28,214.379,0.355,0.092,0.023,0.015,0.089,0.134,0.291,230.17,0.238,0.095,0.01,0.015,0.087,0.161,0.394,136.939,0.012,0.009,0.002,0.002,0.035,0.283,0.657,88.875,0.733,0.119,0.012,0.011,0.027,0.031,0.066,155.693,0.354,0.162,0.031,0.016,0.073,0.145,0.219,92.363,0.521,0.254,0.031,0.01,0.03,0.062,0.091,160.472,0.31,0.161,0.028,0.018,0.069,0.167,0.247,194.482,0.243,0.085,0.022,0.017,0.076,0.189,0.367,178.11,0.153,0.081,0.024,0.022,0.092,0.201,0.426,189.083,0.369,0.131,0.024,0.053,0.121,0.144,0.158,CN,2
1,148.312,0.507,0.141,0.038,0.019,0.058,0.126,0.112,182.615,0.342,0.132,0.048,0.028,0.087,0.203,0.161,117.23,0.585,0.156,0.023,0.01,0.031,0.093,0.103,193.954,0.356,0.078,0.03,0.014,0.076,0.231,0.215,237.528,0.276,0.146,0.042,0.037,0.104,0.188,0.207,207.345,0.663,0.054,0.014,0.015,0.037,0.093,0.123,107.533,0.706,0.008,0.003,0.002,0.015,0.122,0.144,129.999,0.585,0.233,0.02,0.01,0.042,0.042,0.067,172.745,0.325,0.137,0.043,0.034,0.103,0.187,0.17,108.99,0.566,0.141,0.024,0.016,0.043,0.1,0.109,121.501,0.229,0.116,0.027,0.032,0.179,0.241,0.176,205.227,0.215,0.113,0.032,0.083,0.124,0.22,0.213,198.593,0.12,0.12,0.031,0.053,0.113,0.286,0.277,235.963,0.218,0.109,0.029,0.054,0.144,0.179,0.266,CN,2
1,164.207,0.408,0.169,0.035,0.014,0.078,0.123,0.173,187.208,0.316,0.154,0.053,0.023,0.097,0.147,0.211,135.81,0.494,0.108,0.019,0.012,0.061,0.107,0.199,211.715,0.193,0.101,0.026,0.028,0.11,0.217,0.325,223.871,0.407,0.112,0.016,0.047,0.106,0.109,0.203,273.248,0.251,0.094,0.012,0.031,0.15,0.169,0.293,182.871,0.033,0.015,0.003,0.009,0.087,0.251,0.602,135.846,0.667,0.231,0.013,0.005,0.026,0.029,0.03,167.182,0.372,0.171,0.047,0.02,0.077,0.133,0.18,111.209,0.666,0.123,0.02,0.009,0.036,0.062,0.084,154.214,0.402,0.134,0.032,0.021,0.079,0.14,0.191,201.788,0.226,0.13,0.025,0.03,0.151,0.193,0.245,171.577,0.488,0.067,0.02,0.025,0.098,0.126,0.177,178.451,0.114,0.069,0.012,0.021,0.165,0.264,0.354,CN,2
1,171.257,0.476,0.113,0.091,0.019,0.07,0.083,0.149,198.605,0.274,0.129,0.143,0.026,0.088,0.14,0.2,142.906,0.578,0.074,0.037,0.01,0.067,0.088,0.146,210.298,0.342,0.072,0.102,0.023,0.084,0.159,0.217,235.024,0.186,0.197,0.044,0.025,0.166,0.128,0.255,291.4,0.111,0.114,0.049,0.025,0.135,0.173,0.393,201.099,0.017,0.009,0.01,0.011,0.092,0.234,0.628,102.181,0.664,0.26,0.029,0.008,0.018,0.01,0.01,178.957,0.213,0.163,0.123,0.041,0.111,0.134,0.215,137.469,0.544,0.103,0.052,0.016,0.062,0.07,0.154,194.171,0.296,0.161,0.076,0.038,0.087,0.128,0.213,220.226,0.12,0.239,0.046,0.047,0.128,0.161,0.258,212.336,0.127,0.153,0.082,0.056,0.11,0.172,0.3,147.938,0.306,0.25,0.011,0.025,0.182,0.094,0.133,CN,2
1,170.813,0.331,0.095,0.029,0.025,0.1,0.175,0.244,194.541,0.174,0.122,0.03,0.026,0.137,0.204,0.307,143.75,0.505,0.077,0.013,0.022,0.073,0.113,0.197,203.584,0.208,0.057,0.02,0.016,0.135,0.232,0.333,238.344,0.213,0.095,0.024,0.074,0.142,0.162,0.29,297.75,0.119,0.107,0.036,0.047,0.124,0.2,0.367,194.513,0.008,0.009,0.004,0.004,0.124,0.213,0.638,132.895,0.591,0.277,0.035,0.01,0.027,0.03,0.03,182.629,0.216,0.129,0.029,0.046,0.127,0.188,0.265,145.245,0.451,0.096,0.016,0.029,0.089,0.127,0.191,194.798,0.219,0.081,0.017,0.049,0.144,0.193,0.297,207.087,0.084,0.093,0.032,0.079,0.177,0.216,0.319,207.79,0.146,0.093,0.03,0.06,0.138,0.194,0.338,142.732,0.667,0.043,0.005,0.021,0.058,0.087,0.118,CN,2
1,172.295,0.319,0.175,0.069,0.027,0.089,0.134,0.188,197.314,0.272,0.105,0.062,0.028,0.112,0.188,0.233,137.025,0.446,0.176,0.058,0.02,0.064,0.086,0.15,195.823,0.277,0.115,0.057,0.023,0.087,0.185,0.255,227.939,0.317,0.096,0.046,0.042,0.13,0.137,0.232,290.444,0.189,0.087,0.047,0.03,0.138,0.152,0.356,207.019,0.029,0.015,0.014,0.007,0.07,0.28,0.584,99.11,0.609,0.234,0.015,0.007,0.026,0.042,0.066,182.157,0.423,0.082,0.037,0.029,0.1,0.161,0.168,145.07,0.372,0.16,0.073,0.025,0.097,0.128,0.145,198.123,0.255,0.102,0.084,0.033,0.122,0.199,0.204,210.693,0.167,0.073,0.137,0.058,0.162,0.176,0.227,205.23,0.215,0.1,0.095,0.049,0.131,0.183,0.227,183.421,0.683,0.078,0.011,0.013,0.084,0.04,0.091,CN,2
1,118.378,0.475,0.251,0.016,0.023,0.063,0.058,0.114,120.617,0.365,0.173,0.014,0.017,0.115,0.105,0.211,99.462,0.52,0.263,0.013,0.019,0.047,0.048,0.09,124.775,0.419,0.145,0.007,0.018,0.1,0.096,0.214,129.424,0.262,0.146,0.024,0.054,0.123,0.123,0.269,145.216,0.189,0.184,0.017,0.018,0.125,0.165,0.302,149.827,0.025,0.018,0.002,0.005,0.078,0.244,0.628,108.088,0.611,0.232,0.021,0.006,0.042,0.041,0.047,123.504,0.414,0.174,0.011,0.017,0.114,0.1,0.17,106.033,0.44,0.29,0.02,0.027,0.065,0.059,0.099,133.112,0.326,0.22,0.008,0.027,0.121,0.108,0.191,126.835,0.171,0.132,0.051,0.041,0.192,0.146,0.266,118.524,0.315,0.177,0.02,0.025,0.124,0.114,0.225,179.963,0.541,0.111,0.052,0.025,0.089,0.079,0.104,CN,2
1,104.777,0.705,0.117,0.019,0.009,0.033,0.042,0.074,104.738,0.555,0.151,0.037,0.017,0.054,0.063,0.123,92.666,0.78,0.096,0.011,0.006,0.022,0.032,0.052,109.445,0.621,0.11,0.024,0.012,0.049,0.061,0.123,117.373,0.529,0.175,0.027,0.02,0.07,0.071,0.108,98.641,0.793,0.116,0.009,0.007,0.024,0.022,0.028,145.779,0.112,0.039,0.011,0.007,0.088,0.148,0.595,112.504,0.813,0.101,0.016,0.006,0.03,0.019,0.015,107.056,0.58,0.129,0.04,0.017,0.055,0.061,0.117,92.912,0.753,0.097,0.016,0.01,0.032,0.032,0.06,115.201,0.554,0.117,0.039,0.017,0.065,0.07,0.138,118.173,0.394,0.172,0.066,0.025,0.089,0.102,0.151,110.78,0.452,0.134,0.051,0.019,0.094,0.095,0.156,241.701,0.275,0.139,0.058,0.037,0.159,0.156,0.177,CN,2
1,146.55,0.482,0.099,0.047,0.02,0.088,0.13,0.133,155.298,0.386,0.126,0.059,0.019,0.108,0.131,0.171,125.885,0.54,0.114,0.033,0.016,0.06,0.09,0.146,156.475,0.419,0.11,0.049,0.017,0.098,0.12,0.186,172.95,0.553,0.087,0.037,0.029,0.08,0.077,0.137,143.814,0.745,0.088,0.015,0.014,0.037,0.034,0.067,183.769,0.11,0.022,0.008,0.004,0.17,0.138,0.547,169.291,0.343,0.337,0.037,0.019,0.106,0.093,0.065,157.769,0.469,0.096,0.061,0.016,0.081,0.132,0.145,132.075,0.5,0.097,0.05,0.018,0.066,0.133,0.137,161.392,0.399,0.081,0.054,0.014,0.091,0.199,0.162,171.123,0.428,0.071,0.062,0.022,0.105,0.135,0.179,165.772,0.433,0.066,0.053,0.021,0.105,0.151,0.171,232.597,0.545,0.074,0.008,0.052,0.103,0.117,0.101,CN,2
1,145.526,0.668,0.082,0.007,0.015,0.075,0.055,0.098,145.111,0.674,0.08,0.006,0.013,0.076,0.058,0.092,135.205,0.623,0.075,0.007,0.012,0.072,0.072,0.139,147.584,0.639,0.067,0.004,0.011,0.073,0.075,0.132,158.782,0.661,0.078,0.026,0.013,0.079,0.047,0.095,182.886,0.691,0.09,0.014,0.005,0.061,0.043,0.096,156.12,0.391,0.05,0.005,0.006,0.107,0.09,0.351,162.06,0.646,0.203,0.036,0.01,0.039,0.037,0.029,146.141,0.585,0.096,0.011,0.023,0.097,0.071,0.117,130.166,0.612,0.087,0.014,0.021,0.097,0.064,0.105,158.235,0.584,0.082,0.019,0.02,0.105,0.081,0.108,149.912,0.483,0.098,0.041,0.037,0.126,0.087,0.129,149.364,0.569,0.08,0.023,0.04,0.105,0.071,0.112,239.994,0.386,0.093,0.034,0.037,0.133,0.114,0.204,CN,2
1,146.386,0.618,0.144,0.013,0.017,0.072,0.06,0.076,162.487,0.543,0.116,0.019,0.023,0.1,0.092,0.106,126.725,0.631,0.159,0.02,0.015,0.044,0.044,0.086,180.008,0.502,0.113,0.019,0.021,0.097,0.094,0.154,193.783,0.493,0.14,0.042,0.026,0.103,0.077,0.119,207.087,0.421,0.102,0.039,0.031,0.116,0.109,0.182,204.771,0.218,0.038,0.022,0.015,0.131,0.172,0.404,109.418,0.844,0.067,0.004,0.008,0.031,0.025,0.021,162.696,0.525,0.135,0.021,0.019,0.113,0.094,0.093,98.541,0.662,0.183,0.013,0.011,0.04,0.042,0.048,82.604,0.588,0.178,0.058,0.044,0.08,0.032,0.021,173.052,0.482,0.121,0.025,0.047,0.127,0.1,0.099,155.346,0.61,0.122,0.013,0.018,0.08,0.078,0.08,72.261,0.881,0.056,0.01,0.015,0.017,0.007,0.014,CN,2
1,142.144,0.674,0.131,0.031,0.005,0.049,0.054,0.056,180.314,0.479,0.137,0.062,0.016,0.096,0.107,0.103,107.415,0.755,0.123,0.013,0.002,0.03,0.03,0.047,188.894,0.539,0.087,0.04,0.014,0.091,0.09,0.139,198.439,0.571,0.087,0.049,0.015,0.12,0.05,0.109,244.082,0.465,0.114,0.028,0.023,0.132,0.073,0.166,279.201,0.169,0.059,0.016,0.009,0.141,0.167,0.439,164.695,0.536,0.15,0.018,0.019,0.098,0.093,0.087,157.369,0.426,0.183,0.046,0.039,0.096,0.102,0.106,105.126,0.747,0.096,0.027,0.005,0.04,0.037,0.049,172.906,0.571,0.092,0.043,0.009,0.099,0.076,0.111,181.903,0.522,0.118,0.042,0.01,0.127,0.07,0.11,171.418,0.564,0.102,0.029,0.011,0.108,0.072,0.114,130.877,0.647,0.141,0.014,0.036,0.061,0.044,0.058,CN,2
1,176.27,0.494,0.114,0.042,0.064,0.082,0.085,0.119,200.405,0.379,0.159,0.034,0.06,0.116,0.119,0.134,147.322,0.577,0.12,0.034,0.04,0.049,0.076,0.105,202.026,0.417,0.091,0.035,0.048,0.107,0.116,0.187,237.107,0.358,0.214,0.05,0.039,0.122,0.097,0.119,284.578,0.339,0.184,0.044,0.046,0.12,0.099,0.168,286.681,0.136,0.042,0.018,0.036,0.127,0.197,0.443,198.434,0.284,0.245,0.045,0.006,0.141,0.132,0.147,186.25,0.45,0.165,0.033,0.064,0.085,0.106,0.098,157.81,0.511,0.095,0.047,0.069,0.067,0.09,0.12,212.699,0.301,0.081,0.046,0.11,0.134,0.145,0.182,228.518,0.284,0.09,0.073,0.097,0.176,0.131,0.149,225.064,0.36,0.083,0.034,0.106,0.128,0.12,0.169,134.373,0.793,0.061,0.009,0.015,0.03,0.05,0.043,CN,2
1,167.484,0.31,0.089,0.091,0.024,0.121,0.225,0.14,198.657,0.291,0.146,0.066,0.029,0.115,0.22,0.132,143.96,0.33,0.082,0.086,0.021,0.107,0.163,0.211,203.527,0.362,0.079,0.073,0.017,0.109,0.169,0.192,200.946,0.402,0.15,0.047,0.052,0.089,0.116,0.144,245.94,0.352,0.106,0.049,0.052,0.113,0.141,0.188,262.84,0.238,0.055,0.032,0.009,0.115,0.18,0.37,175.252,0.683,0.11,0.014,0.012,0.064,0.058,0.058,172.462,0.302,0.15,0.055,0.044,0.112,0.212,0.124,132.508,0.193,0.106,0.095,0.049,0.154,0.206,0.196,189.771,0.155,0.122,0.085,0.062,0.157,0.239,0.18,196.679,0.238,0.158,0.084,0.083,0.16,0.16,0.116,189.567,0.221,0.129,0.085,0.082,0.139,0.195,0.149,222.022,0.485,0.103,0.033,0.024,0.114,0.09,0.152,CN,2
1,143.224,0.62,0.174,0.029,0.006,0.045,0.064,0.061,190.746,0.41,0.186,0.042,0.008,0.089,0.135,0.13,120.955,0.669,0.173,0.027,0.005,0.03,0.043,0.052,207.736,0.35,0.17,0.039,0.01,0.093,0.158,0.179,239.951,0.381,0.124,0.022,0.034,0.109,0.168,0.161,262.911,0.375,0.126,0.032,0.023,0.087,0.153,0.203,288.529,0.101,0.03,0.016,0.01,0.093,0.356,0.394,153.975,0.622,0.187,0.018,0.025,0.05,0.054,0.044,159.488,0.504,0.134,0.034,0.007,0.072,0.129,0.119,105.382,0.642,0.197,0.021,0.007,0.032,0.048,0.053,173.389,0.474,0.177,0.02,0.008,0.069,0.126,0.126,211.984,0.379,0.134,0.051,0.034,0.128,0.136,0.138,202.481,0.321,0.179,0.043,0.029,0.109,0.164,0.155,242.726,0.36,0.102,0.026,0.033,0.136,0.145,0.198,CN,2
1,145.158,0.743,0.128,0.013,0.007,0.028,0.034,0.047,194.666,0.577,0.12,0.042,0.017,0.065,0.079,0.1,112.816,0.774,0.143,0.007,0.004,0.017,0.02,0.036,191.007,0.637,0.093,0.019,0.006,0.055,0.076,0.115,230.743,0.38,0.145,0.05,0.01,0.134,0.107,0.173,276.646,0.364,0.106,0.036,0.015,0.122,0.117,0.24,282.569,0.219,0.044,0.013,0.007,0.088,0.172,0.457,145.877,0.589,0.226,0.038,0.015,0.047,0.04,0.044,170.73,0.527,0.187,0.035,0.027,0.057,0.085,0.082,116.114,0.746,0.156,0.007,0.007,0.018,0.027,0.039,195.583,0.589,0.128,0.019,0.013,0.058,0.083,0.109,221.015,0.287,0.139,0.124,0.018,0.148,0.118,0.165,226.637,0.311,0.15,0.055,0.024,0.121,0.144,0.196,211.04,0.428,0.227,0.04,0.017,0.099,0.065,0.124,CN,2
1,161.864,0.531,0.137,0.052,0.04,0.067,0.079,0.094,197.346,0.383,0.108,0.07,0.039,0.105,0.135,0.159,133.652,0.599,0.163,0.03,0.03,0.046,0.049,0.083,205.747,0.454,0.106,0.035,0.035,0.079,0.117,0.173,232.171,0.346,0.144,0.041,0.045,0.142,0.128,0.155,285.461,0.393,0.121,0.012,0.008,0.114,0.129,0.223,294.253,0.25,0.072,0.006,0.027,0.104,0.146,0.395,95.124,0.488,0.165,0.007,0.006,0.038,0.108,0.187,189.978,0.56,0.082,0.047,0.03,0.069,0.105,0.107,134.336,0.59,0.181,0.036,0.026,0.042,0.056,0.07,208.4,0.452,0.131,0.053,0.03,0.073,0.115,0.146,218.259,0.228,0.162,0.087,0.059,0.146,0.161,0.157,213.542,0.405,0.168,0.045,0.035,0.086,0.118,0.143,241.753,0.414,0.116,0.028,0.054,0.111,0.115,0.161,CN,2
1,150.73,0.576,0.158,0.023,0.005,0.039,0.072,0.127,190.512,0.361,0.169,0.036,0.01,0.076,0.129,0.218,112.878,0.645,0.124,0.02,0.005,0.023,0.05,0.132,176.312,0.324,0.112,0.026,0.006,0.064,0.151,0.316,215.316,0.283,0.145,0.028,0.014,0.142,0.108,0.28,178.64,0.673,0.053,0.008,0.004,0.054,0.058,0.15,58.314,0.804,0.031,0.002,0.003,0.015,0.031,0.114,127.004,0.585,0.125,0.02,0.01,0.048,0.082,0.131,183.414,0.372,0.168,0.045,0.008,0.075,0.133,0.199,116.664,0.634,0.146,0.022,0.005,0.037,0.074,0.082,190.749,0.365,0.128,0.022,0.005,0.066,0.154,0.261,184.624,0.405,0.1,0.014,0.028,0.13,0.124,0.199,160.831,0.266,0.111,0.031,0.013,0.067,0.135,0.376,188.233,0.344,0.12,0.032,0.012,0.156,0.148,0.187,CN,2
1,145.419,0.49,0.193,0.074,0.027,0.061,0.067,0.088,197.853,0.322,0.158,0.135,0.044,0.105,0.109,0.127,104.526,0.59,0.159,0.045,0.016,0.041,0.06,0.089,188.516,0.415,0.13,0.094,0.033,0.077,0.112,0.14,237.308,0.389,0.146,0.068,0.036,0.136,0.1,0.124,254.662,0.332,0.142,0.041,0.033,0.149,0.11,0.193,112.356,0.429,0.062,0.029,0.012,0.096,0.108,0.264,103.626,0.706,0.181,0.016,0.013,0.032,0.027,0.025,192.283,0.315,0.164,0.14,0.042,0.1,0.113,0.126,117.193,0.531,0.191,0.057,0.019,0.05,0.061,0.091,197.633,0.321,0.177,0.114,0.034,0.097,0.117,0.14,211.175,0.267,0.139,0.086,0.046,0.173,0.152,0.137,216.527,0.241,0.201,0.065,0.026,0.144,0.137,0.185,119.681,0.579,0.175,0.009,0.024,0.06,0.075,0.078,CN,2
1,170.319,0.459,0.154,0.051,0.015,0.091,0.119,0.11,205.479,0.272,0.224,0.048,0.024,0.116,0.174,0.142,130.972,0.571,0.162,0.032,0.007,0.062,0.075,0.091,201.727,0.411,0.135,0.053,0.012,0.102,0.135,0.152,264.857,0.336,0.171,0.043,0.023,0.133,0.143,0.152,316.498,0.233,0.104,0.021,0.046,0.184,0.183,0.229,221.362,0.087,0.08,0.007,0.013,0.11,0.325,0.379,107.659,0.748,0.113,0.007,0.007,0.05,0.036,0.038,190.073,0.39,0.178,0.026,0.016,0.125,0.143,0.122,127.064,0.632,0.133,0.019,0.008,0.052,0.078,0.078,196.691,0.367,0.132,0.032,0.029,0.107,0.184,0.149,229.928,0.367,0.137,0.033,0.027,0.149,0.155,0.132,219.33,0.382,0.102,0.024,0.033,0.13,0.18,0.148,149.059,0.546,0.089,0.037,0.005,0.116,0.107,0.1,CN,2
1,186.095,0.313,0.277,0.04,0.025,0.092,0.115,0.137,216.354,0.161,0.255,0.047,0.022,0.112,0.196,0.207,159.597,0.41,0.238,0.037,0.018,0.07,0.09,0.137,227.54,0.203,0.205,0.025,0.021,0.11,0.223,0.213,255.146,0.279,0.164,0.068,0.027,0.131,0.12,0.213,310.151,0.195,0.105,0.018,0.042,0.117,0.197,0.327,150.597,0.496,0.144,0.03,0.018,0.085,0.083,0.144,99.207,0.582,0.185,0.023,0.013,0.051,0.057,0.089,201.519,0.148,0.249,0.059,0.027,0.123,0.21,0.183,167.099,0.294,0.275,0.032,0.017,0.105,0.125,0.152,221.448,0.184,0.245,0.043,0.016,0.123,0.194,0.193,220.122,0.166,0.154,0.076,0.019,0.168,0.203,0.214,223.187,0.273,0.18,0.033,0.011,0.124,0.172,0.207,173.272,0.38,0.141,0.034,0.027,0.115,0.156,0.146,CN,2
1,105.563,0.608,0.213,0.024,0.028,0.033,0.043,0.051,200.051,0.407,0.201,0.024,0.053,0.07,0.118,0.126,103.232,0.654,0.218,0.024,0.018,0.022,0.027,0.036,179.06,0.53,0.158,0.029,0.033,0.043,0.09,0.117,258.754,0.182,0.17,0.029,0.053,0.214,0.153,0.199,301.326,0.288,0.125,0.016,0.04,0.168,0.142,0.221,254.401,0.181,0.04,0.014,0.026,0.125,0.175,0.438,50.725,0.709,0.213,0.004,0.003,0.012,0.025,0.034,82.723,0.839,0.073,0.009,0.013,0.014,0.025,0.027,112.282,0.649,0.206,0.034,0.017,0.022,0.034,0.038,192.812,0.477,0.166,0.038,0.032,0.059,0.109,0.119,234.02,0.099,0.151,0.019,0.066,0.2,0.256,0.209,237.346,0.317,0.124,0.044,0.046,0.13,0.16,0.179,107.13,0.672,0.083,0.015,0.018,0.075,0.055,0.083,CN,2
1,98.631,0.671,0.129,0.018,0.012,0.055,0.06,0.056,208.988,0.388,0.212,0.025,0.024,0.139,0.111,0.101,127.835,0.681,0.168,0.021,0.01,0.039,0.037,0.044,206.821,0.463,0.188,0.024,0.017,0.115,0.095,0.098,257.501,0.308,0.245,0.026,0.045,0.162,0.101,0.114,280.813,0.508,0.168,0.013,0.015,0.097,0.078,0.12,312.538,0.184,0.081,0.034,0.019,0.164,0.196,0.322,73.734,0.702,0.185,0.011,0.016,0.028,0.031,0.028,138.953,0.365,0.233,0.023,0.029,0.142,0.1,0.108,131.771,0.678,0.151,0.012,0.01,0.052,0.044,0.054,199.626,0.475,0.133,0.023,0.032,0.113,0.107,0.116,232.7,0.265,0.172,0.055,0.066,0.19,0.139,0.112,232.178,0.436,0.121,0.023,0.023,0.151,0.129,0.117,92.692,0.754,0.075,0.014,0.014,0.035,0.032,0.076,CN,2
1,157.784,0.698,0.091,0.02,0.022,0.037,0.084,0.049,204.253,0.523,0.129,0.038,0.035,0.07,0.12,0.085,122.613,0.792,0.077,0.01,0.014,0.024,0.04,0.043,207.509,0.597,0.115,0.018,0.026,0.051,0.099,0.094,257.723,0.302,0.214,0.048,0.075,0.147,0.095,0.118,309.152,0.187,0.214,0.031,0.082,0.134,0.158,0.194,332.93,0.186,0.103,0.025,0.042,0.138,0.166,0.34,98.905,0.699,0.222,0.023,0.007,0.019,0.017,0.012,153.386,0.516,0.171,0.034,0.029,0.064,0.111,0.075,130.017,0.73,0.074,0.025,0.026,0.033,0.052,0.059,199.582,0.417,0.151,0.051,0.074,0.074,0.125,0.108,229.633,0.161,0.191,0.071,0.151,0.166,0.163,0.097,240.273,0.231,0.127,0.124,0.141,0.104,0.149,0.124,220.171,0.327,0.181,0.023,0.021,0.127,0.137,0.184,CN,2
1,131.13,0.55,0.131,0.01,0.027,0.069,0.071,0.143,178.026,0.269,0.121,0.029,0.045,0.14,0.128,0.269,100.255,0.741,0.097,0.002,0.014,0.036,0.031,0.079,179.0,0.448,0.081,0.012,0.031,0.086,0.104,0.238,201.05,0.529,0.087,0.016,0.024,0.1,0.082,0.163,95.617,0.817,0.091,0.012,0.008,0.02,0.023,0.03,29.688,0.969,0.006,0.001,0.0,0.003,0.004,0.016,89.151,0.695,0.21,0.017,0.005,0.025,0.027,0.02,121.914,0.628,0.072,0.022,0.023,0.067,0.059,0.128,108.526,0.498,0.153,0.006,0.021,0.055,0.089,0.178,166.262,0.238,0.144,0.029,0.035,0.083,0.143,0.328,170.55,0.531,0.065,0.02,0.025,0.099,0.071,0.189,147.607,0.479,0.073,0.026,0.009,0.075,0.086,0.252,195.759,0.357,0.155,0.023,0.029,0.124,0.139,0.174,CN,2
1,159.694,0.668,0.153,0.02,0.01,0.05,0.04,0.059,211.248,0.617,0.083,0.022,0.012,0.079,0.076,0.111,120.09,0.69,0.198,0.013,0.011,0.026,0.025,0.037,150.815,0.619,0.153,0.023,0.023,0.07,0.054,0.058,235.35,0.382,0.189,0.038,0.013,0.141,0.097,0.139,179.041,0.579,0.09,0.02,0.01,0.091,0.084,0.126,77.623,0.75,0.066,0.012,0.006,0.043,0.041,0.081,69.397,0.465,0.138,0.012,0.003,0.012,0.116,0.254,199.522,0.616,0.081,0.018,0.012,0.088,0.084,0.101,122.774,0.637,0.214,0.016,0.008,0.04,0.031,0.054,206.147,0.569,0.102,0.019,0.014,0.098,0.075,0.123,220.831,0.293,0.185,0.066,0.013,0.16,0.116,0.168,222.941,0.375,0.123,0.065,0.017,0.14,0.111,0.17,186.935,0.406,0.141,0.008,0.047,0.174,0.099,0.125,CN,2
1,178.683,0.595,0.108,0.026,0.023,0.087,0.075,0.086,224.141,0.345,0.192,0.062,0.032,0.123,0.109,0.138,138.16,0.657,0.121,0.022,0.013,0.051,0.058,0.076,211.566,0.408,0.124,0.046,0.036,0.106,0.125,0.157,275.463,0.301,0.101,0.038,0.054,0.194,0.152,0.159,275.066,0.133,0.103,0.043,0.064,0.187,0.217,0.252,157.863,0.238,0.07,0.009,0.027,0.132,0.19,0.335,82.295,0.689,0.203,0.027,0.008,0.032,0.025,0.017,179.475,0.582,0.121,0.038,0.017,0.074,0.088,0.08,151.689,0.538,0.153,0.034,0.021,0.079,0.076,0.099,229.833,0.325,0.157,0.042,0.037,0.125,0.157,0.157,241.674,0.188,0.109,0.058,0.091,0.216,0.166,0.172,242.734,0.151,0.135,0.055,0.061,0.184,0.184,0.23,85.503,0.672,0.154,0.011,0.017,0.033,0.044,0.069,CN,2
1,82.409,0.723,0.037,0.007,0.004,0.022,0.065,0.142,101.537,0.549,0.04,0.014,0.007,0.035,0.115,0.241,22.805,0.925,0.03,0.001,0.003,0.005,0.013,0.023,95.727,0.385,0.067,0.024,0.017,0.05,0.152,0.305,150.873,0.278,0.069,0.02,0.007,0.11,0.174,0.341,130.742,0.103,0.019,0.003,0.003,0.041,0.199,0.633,69.138,0.456,0.057,0.005,0.005,0.024,0.123,0.328,98.42,0.578,0.263,0.04,0.018,0.058,0.02,0.023,98.216,0.538,0.035,0.011,0.008,0.035,0.119,0.254,37.081,0.799,0.054,0.006,0.003,0.013,0.035,0.089,75.933,0.64,0.038,0.006,0.004,0.024,0.088,0.201,112.696,0.15,0.039,0.004,0.005,0.075,0.199,0.529,63.807,0.121,0.021,0.005,0.003,0.047,0.202,0.6,162.76,0.583,0.101,0.006,0.024,0.089,0.088,0.11,CN,3
1,103.801,0.51,0.128,0.005,0.011,0.044,0.114,0.188,135.93,0.304,0.08,0.008,0.016,0.071,0.193,0.327,38.379,0.666,0.148,0.011,0.014,0.026,0.053,0.082,115.947,0.308,0.11,0.006,0.011,0.061,0.189,0.315,168.567,0.192,0.089,0.014,0.03,0.116,0.201,0.358,180.248,0.072,0.058,0.005,0.004,0.065,0.314,0.483,36.746,0.365,0.13,0.003,0.004,0.096,0.173,0.229,96.727,0.68,0.251,0.012,0.004,0.023,0.016,0.015,134.737,0.35,0.079,0.008,0.016,0.072,0.185,0.291,65.275,0.744,0.081,0.011,0.007,0.025,0.045,0.086,111.936,0.513,0.061,0.011,0.01,0.045,0.14,0.22,145.826,0.185,0.055,0.01,0.025,0.1,0.264,0.361,79.62,0.289,0.037,0.007,0.008,0.051,0.196,0.412,203.831,0.415,0.163,0.02,0.026,0.117,0.128,0.13,CN,3
1,140.129,0.482,0.226,0.032,0.018,0.056,0.091,0.095,193.418,0.339,0.173,0.038,0.018,0.102,0.157,0.172,97.721,0.528,0.278,0.026,0.017,0.029,0.061,0.061,174.599,0.431,0.154,0.033,0.016,0.067,0.154,0.144,215.002,0.324,0.154,0.039,0.017,0.161,0.15,0.156,263.015,0.33,0.118,0.019,0.009,0.149,0.16,0.215,48.726,0.715,0.08,0.011,0.01,0.025,0.069,0.09,121.314,0.652,0.236,0.008,0.01,0.037,0.03,0.027,181.035,0.334,0.182,0.036,0.027,0.102,0.154,0.163,112.935,0.531,0.212,0.037,0.02,0.042,0.082,0.076,163.317,0.383,0.167,0.033,0.021,0.081,0.179,0.135,212.009,0.274,0.133,0.027,0.038,0.148,0.186,0.195,127.088,0.333,0.077,0.02,0.016,0.105,0.213,0.236,150.725,0.424,0.121,0.017,0.036,0.08,0.144,0.178,CN,3
1,177.976,0.287,0.211,0.044,0.023,0.13,0.164,0.141,219.681,0.271,0.23,0.039,0.02,0.121,0.167,0.151,146.064,0.217,0.199,0.059,0.038,0.116,0.19,0.182,225.879,0.221,0.205,0.072,0.023,0.085,0.207,0.186,246.768,0.418,0.169,0.043,0.042,0.101,0.119,0.108,313.016,0.203,0.195,0.034,0.029,0.138,0.172,0.228,166.378,0.306,0.08,0.012,0.025,0.093,0.149,0.335,80.62,0.76,0.195,0.012,0.002,0.016,0.008,0.007,208.223,0.303,0.212,0.051,0.014,0.134,0.155,0.13,143.09,0.22,0.168,0.046,0.034,0.142,0.189,0.201,196.818,0.249,0.154,0.051,0.026,0.143,0.199,0.178,221.323,0.27,0.093,0.152,0.044,0.129,0.199,0.114,202.817,0.238,0.146,0.079,0.042,0.159,0.154,0.182,187.442,0.193,0.113,0.013,0.061,0.133,0.234,0.253,CN,3
1,161.911,0.675,0.163,0.01,0.01,0.035,0.057,0.049,204.669,0.555,0.144,0.019,0.018,0.079,0.112,0.072,131.507,0.73,0.191,0.015,0.006,0.012,0.019,0.025,214.67,0.544,0.201,0.017,0.017,0.051,0.087,0.082,253.011,0.358,0.156,0.034,0.044,0.184,0.099,0.126,312.998,0.279,0.141,0.049,0.05,0.161,0.132,0.187,268.452,0.44,0.091,0.013,0.048,0.087,0.142,0.179,115.771,0.738,0.183,0.016,0.009,0.022,0.018,0.014,189.154,0.594,0.126,0.011,0.021,0.064,0.11,0.074,103.485,0.788,0.086,0.005,0.008,0.025,0.046,0.042,168.1,0.648,0.068,0.005,0.016,0.056,0.117,0.09,205.978,0.44,0.151,0.031,0.061,0.118,0.106,0.093,186.865,0.55,0.098,0.015,0.021,0.078,0.134,0.105,148.178,0.373,0.095,0.024,0.011,0.133,0.169,0.196,CN,3
1,153.611,0.568,0.187,0.013,0.02,0.053,0.086,0.074,209.297,0.337,0.234,0.02,0.025,0.113,0.144,0.127,123.169,0.573,0.199,0.02,0.027,0.046,0.064,0.069,218.006,0.407,0.169,0.034,0.025,0.076,0.156,0.133,273.617,0.216,0.198,0.072,0.042,0.195,0.136,0.14,321.941,0.2,0.129,0.057,0.035,0.224,0.173,0.183,339.325,0.192,0.104,0.042,0.01,0.187,0.229,0.235,120.513,0.42,0.414,0.021,0.017,0.046,0.043,0.038,214.518,0.293,0.206,0.031,0.023,0.126,0.18,0.141,124.383,0.487,0.214,0.027,0.022,0.053,0.099,0.098,205.637,0.262,0.151,0.029,0.028,0.103,0.228,0.199,235.357,0.243,0.165,0.041,0.06,0.177,0.191,0.123,237.14,0.306,0.12,0.041,0.029,0.126,0.212,0.165,177.649,0.405,0.094,0.019,0.015,0.128,0.158,0.181,CN,3
1,174.901,0.559,0.118,0.018,0.029,0.069,0.148,0.058,213.362,0.398,0.182,0.026,0.029,0.097,0.169,0.099,145.039,0.692,0.075,0.016,0.031,0.05,0.075,0.062,222.138,0.479,0.12,0.035,0.03,0.082,0.164,0.09,269.384,0.327,0.197,0.031,0.053,0.121,0.147,0.124,322.284,0.319,0.16,0.033,0.062,0.11,0.138,0.178,368.103,0.224,0.125,0.019,0.087,0.106,0.233,0.206,113.836,0.661,0.266,0.015,0.005,0.023,0.017,0.014,216.121,0.361,0.165,0.024,0.033,0.096,0.219,0.102,138.279,0.669,0.068,0.015,0.033,0.05,0.108,0.058,208.097,0.488,0.082,0.022,0.042,0.073,0.205,0.088,241.897,0.253,0.199,0.033,0.083,0.136,0.179,0.116,247.895,0.338,0.128,0.029,0.118,0.091,0.192,0.103,197.662,0.248,0.076,0.014,0.027,0.19,0.219,0.227,CN,3
1,180.774,0.529,0.233,0.023,0.019,0.061,0.075,0.06,228.933,0.34,0.263,0.029,0.023,0.098,0.143,0.103,146.043,0.66,0.17,0.019,0.013,0.047,0.042,0.05,235.726,0.457,0.2,0.027,0.01,0.09,0.132,0.084,268.182,0.299,0.252,0.02,0.022,0.148,0.133,0.126,331.816,0.235,0.182,0.045,0.036,0.143,0.181,0.178,365.376,0.284,0.101,0.025,0.027,0.14,0.231,0.192,105.557,0.68,0.168,0.007,0.011,0.045,0.049,0.04,216.495,0.414,0.241,0.024,0.024,0.086,0.12,0.09,145.473,0.602,0.179,0.017,0.019,0.05,0.075,0.058,227.295,0.374,0.2,0.027,0.02,0.097,0.173,0.109,243.282,0.179,0.189,0.031,0.045,0.198,0.224,0.135,255.738,0.26,0.156,0.06,0.053,0.12,0.19,0.161,50.374,0.295,0.051,0.008,0.019,0.071,0.327,0.23,CN,3
1,177.201,0.644,0.113,0.015,0.021,0.05,0.092,0.065,229.319,0.452,0.149,0.029,0.039,0.09,0.13,0.112,145.596,0.707,0.12,0.013,0.015,0.03,0.061,0.055,231.981,0.489,0.121,0.039,0.034,0.074,0.138,0.106,261.72,0.144,0.203,0.201,0.017,0.146,0.157,0.132,328.938,0.121,0.141,0.072,0.014,0.216,0.207,0.23,356.89,0.235,0.132,0.05,0.028,0.144,0.179,0.233,90.162,0.763,0.174,0.023,0.011,0.011,0.009,0.01,208.599,0.52,0.15,0.032,0.035,0.067,0.121,0.075,154.982,0.55,0.149,0.019,0.024,0.055,0.126,0.078,224.029,0.374,0.178,0.029,0.044,0.084,0.184,0.106,231.04,0.171,0.257,0.079,0.085,0.117,0.178,0.114,263.321,0.215,0.19,0.029,0.076,0.149,0.189,0.151,65.676,0.858,0.021,0.005,0.006,0.026,0.038,0.046,CN,3
1,166.491,0.454,0.266,0.038,0.009,0.065,0.083,0.085,213.549,0.391,0.232,0.039,0.013,0.097,0.117,0.111,135.769,0.488,0.276,0.021,0.017,0.054,0.07,0.076,220.745,0.361,0.218,0.022,0.02,0.098,0.142,0.139,251.802,0.376,0.151,0.026,0.038,0.168,0.117,0.124,309.659,0.227,0.194,0.039,0.029,0.13,0.174,0.206,340.827,0.178,0.141,0.033,0.041,0.122,0.222,0.264,179.443,0.393,0.198,0.047,0.026,0.091,0.143,0.101,207.013,0.422,0.225,0.03,0.01,0.088,0.131,0.094,140.239,0.364,0.319,0.026,0.01,0.078,0.105,0.098,218.615,0.247,0.271,0.04,0.009,0.119,0.176,0.138,235.554,0.256,0.149,0.063,0.05,0.229,0.134,0.121,250.595,0.224,0.231,0.06,0.021,0.14,0.169,0.155,129.445,0.628,0.113,0.018,0.009,0.051,0.096,0.085,CN,3
1,205.647,0.542,0.16,0.059,0.009,0.076,0.076,0.077,229.076,0.404,0.136,0.11,0.015,0.11,0.116,0.109,162.088,0.611,0.188,0.04,0.006,0.045,0.047,0.062,236.415,0.383,0.148,0.078,0.021,0.094,0.164,0.111,259.547,0.124,0.224,0.189,0.053,0.189,0.103,0.117,340.636,0.219,0.146,0.033,0.021,0.223,0.173,0.185,347.255,0.296,0.128,0.061,0.014,0.145,0.132,0.224,105.791,0.41,0.509,0.031,0.012,0.018,0.011,0.01,213.507,0.464,0.141,0.062,0.01,0.099,0.133,0.091,158.975,0.565,0.159,0.046,0.014,0.048,0.097,0.071,226.618,0.388,0.123,0.041,0.023,0.093,0.226,0.107,229.682,0.185,0.242,0.111,0.071,0.156,0.146,0.088,256.711,0.387,0.15,0.029,0.019,0.126,0.162,0.128,200.491,0.391,0.103,0.019,0.021,0.095,0.159,0.212,CN,3
1,189.94,0.527,0.137,0.023,0.034,0.092,0.115,0.072,229.846,0.332,0.203,0.026,0.051,0.127,0.158,0.102,155.766,0.691,0.1,0.009,0.017,0.06,0.068,0.054,236.111,0.382,0.153,0.033,0.039,0.122,0.162,0.108,263.895,0.259,0.148,0.044,0.042,0.218,0.138,0.151,331.97,0.14,0.166,0.051,0.052,0.195,0.19,0.206,343.587,0.232,0.095,0.032,0.041,0.172,0.231,0.198,104.4,0.618,0.236,0.021,0.008,0.041,0.034,0.042,210.846,0.262,0.206,0.039,0.064,0.106,0.209,0.114,152.112,0.568,0.102,0.022,0.024,0.083,0.129,0.072,221.022,0.343,0.131,0.021,0.049,0.123,0.238,0.096,232.914,0.18,0.188,0.053,0.03,0.207,0.219,0.122,243.579,0.237,0.198,0.031,0.038,0.167,0.201,0.128,177.275,0.48,0.094,0.006,0.023,0.139,0.125,0.133,CN,3
1,183.662,0.605,0.053,0.015,0.02,0.076,0.11,0.121,215.613,0.356,0.126,0.015,0.033,0.112,0.193,0.165,140.883,0.666,0.039,0.013,0.011,0.059,0.08,0.132,225.8,0.299,0.063,0.015,0.016,0.123,0.206,0.278,235.531,0.419,0.122,0.024,0.067,0.096,0.119,0.153,280.58,0.359,0.174,0.012,0.029,0.083,0.116,0.227,121.069,0.077,0.037,0.007,0.006,0.073,0.316,0.484,75.65,0.455,0.031,0.004,0.001,0.02,0.107,0.382,210.243,0.318,0.137,0.021,0.028,0.114,0.204,0.179,145.094,0.671,0.038,0.015,0.014,0.079,0.077,0.107,220.785,0.339,0.073,0.02,0.022,0.123,0.217,0.206,218.521,0.246,0.144,0.025,0.054,0.146,0.198,0.188,192.184,0.235,0.127,0.014,0.027,0.121,0.194,0.282,178.794,0.533,0.044,0.013,0.01,0.099,0.119,0.183,CN,3
1,160.18,0.355,0.237,0.098,0.038,0.087,0.111,0.073,199.244,0.217,0.203,0.139,0.064,0.097,0.164,0.116,122.26,0.553,0.186,0.051,0.028,0.045,0.065,0.072,195.954,0.364,0.173,0.106,0.038,0.081,0.124,0.115,254.439,0.112,0.214,0.215,0.065,0.146,0.138,0.109,317.409,0.172,0.188,0.107,0.041,0.157,0.162,0.173,236.995,0.468,0.094,0.028,0.031,0.092,0.145,0.142,118.374,0.557,0.288,0.01,0.009,0.061,0.048,0.026,180.827,0.338,0.16,0.135,0.033,0.105,0.14,0.089,119.478,0.473,0.186,0.079,0.03,0.083,0.075,0.073,195.858,0.222,0.197,0.132,0.037,0.126,0.156,0.13,218.073,0.104,0.187,0.207,0.072,0.172,0.166,0.092,204.396,0.103,0.169,0.095,0.037,0.163,0.179,0.253,121.328,0.466,0.323,0.013,0.011,0.041,0.072,0.074,CN,3
1,176.09,0.388,0.24,0.053,0.037,0.08,0.117,0.085,199.629,0.355,0.275,0.036,0.036,0.08,0.128,0.09,184.508,0.332,0.214,0.055,0.043,0.117,0.129,0.111,243.423,0.355,0.182,0.033,0.036,0.111,0.173,0.11,250.786,0.331,0.175,0.044,0.02,0.186,0.123,0.12,312.6,0.331,0.105,0.063,0.019,0.14,0.154,0.187,205.574,0.619,0.043,0.016,0.023,0.048,0.117,0.133,90.916,0.72,0.231,0.011,0.002,0.017,0.011,0.009,189.086,0.38,0.204,0.046,0.051,0.088,0.135,0.095,119.869,0.387,0.244,0.046,0.032,0.094,0.1,0.097,174.767,0.381,0.149,0.035,0.045,0.114,0.162,0.115,219.029,0.182,0.16,0.055,0.045,0.285,0.155,0.117,201.322,0.27,0.082,0.025,0.042,0.144,0.171,0.267,90.394,0.24,0.091,0.02,0.024,0.238,0.181,0.205,CN,3
1,129.111,0.714,0.135,0.024,0.02,0.034,0.035,0.038,169.207,0.456,0.161,0.043,0.057,0.086,0.104,0.094,130.472,0.771,0.117,0.02,0.009,0.024,0.029,0.03,201.19,0.571,0.116,0.02,0.034,0.08,0.101,0.079,236.932,0.386,0.148,0.082,0.026,0.131,0.116,0.11,300.133,0.321,0.147,0.067,0.022,0.141,0.141,0.162,269.242,0.231,0.15,0.038,0.012,0.126,0.198,0.244,75.043,0.872,0.093,0.006,0.004,0.01,0.007,0.007,161.01,0.508,0.122,0.038,0.043,0.076,0.12,0.093,87.871,0.784,0.111,0.015,0.01,0.023,0.028,0.029,142.003,0.587,0.119,0.021,0.025,0.074,0.086,0.087,207.217,0.381,0.097,0.04,0.045,0.191,0.134,0.111,189.665,0.461,0.109,0.028,0.019,0.141,0.123,0.119,116.066,0.333,0.086,0.041,0.027,0.155,0.157,0.201,CN,3
1,161.666,0.515,0.133,0.061,0.034,0.087,0.087,0.083,189.825,0.577,0.114,0.035,0.024,0.091,0.086,0.074,128.387,0.372,0.178,0.053,0.048,0.109,0.104,0.135,204.746,0.326,0.181,0.043,0.025,0.129,0.145,0.151,204.603,0.552,0.148,0.045,0.024,0.072,0.08,0.079,301.285,0.343,0.175,0.055,0.03,0.113,0.13,0.156,346.407,0.202,0.124,0.016,0.044,0.165,0.185,0.264,124.289,0.843,0.045,0.006,0.007,0.037,0.031,0.03,184.885,0.557,0.101,0.033,0.028,0.107,0.102,0.073,109.132,0.812,0.047,0.013,0.015,0.031,0.04,0.042,157.102,0.686,0.075,0.026,0.02,0.058,0.076,0.059,210.045,0.485,0.125,0.039,0.034,0.127,0.1,0.091,183.464,0.75,0.049,0.012,0.011,0.055,0.07,0.052,137.848,0.558,0.134,0.015,0.027,0.084,0.075,0.108,CN,3
1,185.963,0.375,0.384,0.052,0.01,0.059,0.075,0.045,205.814,0.222,0.493,0.057,0.01,0.066,0.096,0.056,150.632,0.611,0.167,0.028,0.017,0.044,0.072,0.061,238.746,0.263,0.26,0.072,0.022,0.082,0.182,0.119,249.76,0.422,0.197,0.04,0.033,0.102,0.11,0.096,330.549,0.268,0.237,0.033,0.057,0.103,0.14,0.162,336.665,0.189,0.128,0.038,0.056,0.189,0.196,0.205,146.855,0.514,0.216,0.036,0.023,0.104,0.057,0.05,194.741,0.301,0.42,0.049,0.011,0.074,0.093,0.05,135.405,0.454,0.204,0.044,0.02,0.078,0.123,0.078,200.151,0.225,0.219,0.069,0.023,0.137,0.212,0.115,212.616,0.314,0.183,0.035,0.036,0.197,0.144,0.091,197.051,0.265,0.155,0.049,0.054,0.159,0.196,0.122,98.568,0.793,0.035,0.009,0.01,0.044,0.049,0.06,CN,3
1,196.479,0.544,0.18,0.028,0.011,0.068,0.093,0.075,223.883,0.361,0.179,0.04,0.014,0.129,0.166,0.111,180.198,0.597,0.169,0.029,0.01,0.051,0.064,0.08,195.869,0.538,0.125,0.03,0.01,0.096,0.108,0.093,235.431,0.362,0.121,0.129,0.033,0.154,0.105,0.097,315.264,0.306,0.147,0.088,0.035,0.13,0.134,0.161,349.516,0.266,0.13,0.06,0.031,0.121,0.181,0.211,199.954,0.554,0.188,0.021,0.017,0.1,0.062,0.059,207.706,0.438,0.184,0.031,0.021,0.099,0.127,0.101,167.697,0.502,0.206,0.027,0.015,0.066,0.083,0.1,220.789,0.306,0.184,0.052,0.018,0.13,0.147,0.163,211.304,0.19,0.113,0.206,0.039,0.188,0.163,0.101,227.596,0.279,0.111,0.068,0.027,0.2,0.16,0.155,120.482,0.59,0.102,0.013,0.011,0.079,0.086,0.118,CN,3
1,165.691,0.388,0.12,0.023,0.014,0.065,0.09,0.3,190.24,0.179,0.114,0.043,0.019,0.106,0.135,0.405,148.615,0.575,0.09,0.019,0.006,0.044,0.071,0.195,210.229,0.226,0.079,0.035,0.013,0.08,0.12,0.448,212.49,0.187,0.122,0.101,0.034,0.109,0.119,0.327,260.797,0.135,0.167,0.038,0.037,0.103,0.176,0.343,50.306,0.033,0.029,0.002,0.0,0.32,0.346,0.27,89.387,0.73,0.131,0.006,0.007,0.017,0.04,0.069,187.648,0.164,0.119,0.041,0.022,0.105,0.132,0.418,132.206,0.55,0.101,0.015,0.005,0.048,0.081,0.199,191.702,0.174,0.09,0.025,0.013,0.073,0.139,0.485,203.75,0.139,0.114,0.029,0.042,0.098,0.143,0.435,199.886,0.092,0.087,0.035,0.013,0.087,0.306,0.38,87.16,0.423,0.28,0.006,0.013,0.103,0.076,0.099,CN,3
1,159.238,0.703,0.092,0.02,0.01,0.054,0.066,0.054,191.951,0.53,0.125,0.036,0.028,0.082,0.118,0.082,146.88,0.724,0.117,0.015,0.009,0.033,0.045,0.058,229.862,0.447,0.109,0.053,0.025,0.091,0.145,0.129,236.398,0.353,0.197,0.125,0.029,0.099,0.088,0.109,251.73,0.301,0.146,0.05,0.034,0.149,0.12,0.2,52.589,0.868,0.045,0.013,0.006,0.021,0.013,0.033,82.832,0.761,0.207,0.001,0.002,0.016,0.007,0.007,183.078,0.584,0.121,0.03,0.014,0.075,0.099,0.077,115.002,0.741,0.121,0.011,0.008,0.034,0.046,0.039,177.417,0.615,0.1,0.017,0.012,0.075,0.11,0.071,199.696,0.378,0.157,0.045,0.039,0.161,0.136,0.085,190.398,0.502,0.114,0.03,0.012,0.11,0.113,0.119,12.005,0.626,0.13,0.005,0.005,0.128,0.078,0.029,CN,3
1,130.102,0.494,0.267,0.041,0.026,0.05,0.067,0.054,173.506,0.263,0.327,0.083,0.044,0.072,0.113,0.098,94.717,0.699,0.177,0.017,0.011,0.03,0.035,0.032,172.217,0.502,0.209,0.053,0.029,0.05,0.09,0.067,244.967,0.46,0.134,0.068,0.061,0.1,0.07,0.107,299.083,0.282,0.144,0.039,0.087,0.125,0.13,0.193,133.645,0.413,0.128,0.019,0.018,0.099,0.105,0.218,122.673,0.605,0.2,0.029,0.016,0.079,0.038,0.033,161.696,0.325,0.31,0.085,0.022,0.075,0.107,0.077,97.949,0.62,0.204,0.02,0.015,0.042,0.052,0.047,164.998,0.354,0.261,0.056,0.035,0.066,0.127,0.102,212.406,0.269,0.179,0.06,0.135,0.128,0.137,0.091,207.831,0.281,0.299,0.041,0.07,0.073,0.123,0.112,21.863,0.84,0.074,0.016,0.017,0.022,0.016,0.014,CN,3
1,160.739,0.431,0.302,0.028,0.02,0.066,0.075,0.078,195.162,0.312,0.284,0.031,0.03,0.119,0.104,0.119,122.364,0.56,0.2,0.023,0.012,0.061,0.074,0.07,217.224,0.297,0.222,0.033,0.038,0.135,0.145,0.129,249.82,0.415,0.12,0.034,0.058,0.132,0.105,0.136,312.046,0.276,0.114,0.045,0.039,0.129,0.177,0.221,274.642,0.283,0.075,0.035,0.029,0.121,0.144,0.314,88.938,0.834,0.134,0.003,0.002,0.013,0.007,0.007,173.643,0.454,0.245,0.017,0.04,0.083,0.079,0.081,114.47,0.492,0.288,0.025,0.017,0.048,0.058,0.072,175.349,0.327,0.278,0.025,0.028,0.1,0.109,0.132,217.6,0.274,0.141,0.112,0.069,0.173,0.116,0.114,194.665,0.22,0.194,0.084,0.064,0.143,0.141,0.154,25.083,0.924,0.053,0.003,0.004,0.007,0.005,0.004,CN,3
1,148.519,0.585,0.229,0.035,0.006,0.039,0.068,0.039,183.402,0.467,0.207,0.032,0.009,0.078,0.125,0.082,133.953,0.652,0.219,0.033,0.004,0.017,0.031,0.044,212.839,0.478,0.191,0.07,0.011,0.055,0.111,0.084,233.809,0.282,0.21,0.039,0.027,0.164,0.14,0.138,300.999,0.274,0.191,0.021,0.027,0.128,0.184,0.174,221.532,0.593,0.076,0.017,0.006,0.039,0.138,0.131,86.893,0.887,0.055,0.007,0.006,0.016,0.014,0.014,176.009,0.477,0.207,0.043,0.014,0.069,0.122,0.068,104.475,0.641,0.219,0.031,0.006,0.026,0.043,0.034,82.622,0.072,0.026,0.005,0.002,0.375,0.384,0.136,211.785,0.16,0.225,0.077,0.049,0.186,0.175,0.129,201.173,0.273,0.143,0.028,0.024,0.114,0.246,0.173,62.359,0.516,0.146,0.019,0.021,0.09,0.089,0.12,CN,3
1,171.233,0.468,0.165,0.057,0.033,0.097,0.088,0.093,205.988,0.407,0.208,0.037,0.05,0.099,0.091,0.108,137.841,0.578,0.187,0.036,0.019,0.059,0.053,0.067,227.109,0.316,0.208,0.054,0.046,0.12,0.109,0.147,248.409,0.353,0.17,0.041,0.041,0.158,0.114,0.123,345.027,0.203,0.162,0.057,0.033,0.174,0.15,0.222,353.99,0.253,0.163,0.045,0.047,0.114,0.142,0.236,101.365,0.666,0.24,0.008,0.007,0.032,0.021,0.027,200.492,0.448,0.184,0.036,0.035,0.096,0.102,0.1,118.99,0.69,0.084,0.034,0.014,0.054,0.054,0.071,169.489,0.634,0.061,0.036,0.024,0.067,0.096,0.083,217.526,0.463,0.075,0.044,0.032,0.157,0.122,0.107,195.983,0.545,0.095,0.053,0.025,0.093,0.099,0.089,71.563,0.657,0.111,0.033,0.016,0.078,0.047,0.059,CN,3
1,158.94,0.439,0.213,0.06,0.04,0.073,0.092,0.083,199.525,0.206,0.245,0.08,0.062,0.114,0.152,0.14,135.215,0.592,0.175,0.036,0.025,0.047,0.057,0.067,218.522,0.348,0.165,0.083,0.039,0.089,0.127,0.149,250.975,0.207,0.171,0.103,0.053,0.184,0.138,0.145,258.073,0.543,0.093,0.06,0.043,0.06,0.08,0.122,345.78,0.115,0.141,0.109,0.048,0.146,0.16,0.28,154.454,0.397,0.246,0.015,0.023,0.107,0.08,0.132,159.717,0.432,0.176,0.051,0.052,0.098,0.098,0.094,114.883,0.509,0.222,0.038,0.029,0.059,0.061,0.082,180.213,0.3,0.167,0.067,0.053,0.106,0.146,0.16,217.881,0.159,0.232,0.085,0.064,0.167,0.152,0.141,201.426,0.264,0.165,0.054,0.054,0.134,0.17,0.159,107.167,0.451,0.154,0.018,0.013,0.134,0.096,0.133,CN,3
1,162.74,0.325,0.403,0.041,0.041,0.065,0.072,0.052,188.659,0.287,0.416,0.031,0.031,0.083,0.086,0.066,174.276,0.42,0.252,0.055,0.04,0.066,0.088,0.078,241.309,0.343,0.214,0.028,0.051,0.117,0.126,0.121,251.754,0.315,0.202,0.06,0.076,0.142,0.099,0.105,288.653,0.266,0.104,0.063,0.082,0.151,0.162,0.171,324.744,0.164,0.293,0.042,0.052,0.088,0.18,0.181,161.766,0.615,0.184,0.025,0.013,0.075,0.047,0.041,179.722,0.405,0.277,0.043,0.034,0.076,0.096,0.068,116.364,0.503,0.197,0.035,0.053,0.072,0.068,0.071,181.03,0.368,0.171,0.05,0.07,0.106,0.128,0.107,210.78,0.234,0.211,0.083,0.109,0.162,0.106,0.095,215.666,0.319,0.178,0.082,0.081,0.126,0.117,0.096,78.982,0.583,0.118,0.008,0.019,0.121,0.08,0.071,CN,3
1,227.025,0.305,0.232,0.037,0.038,0.148,0.138,0.101,241.601,0.245,0.228,0.018,0.022,0.175,0.18,0.132,207.115,0.438,0.184,0.033,0.038,0.1,0.095,0.111,264.266,0.297,0.162,0.021,0.021,0.183,0.161,0.155,268.925,0.288,0.211,0.053,0.066,0.115,0.124,0.143,325.986,0.299,0.172,0.019,0.057,0.135,0.156,0.163,341.589,0.19,0.152,0.026,0.046,0.151,0.176,0.26,94.007,0.745,0.197,0.009,0.009,0.017,0.011,0.012,206.01,0.357,0.226,0.022,0.03,0.137,0.128,0.099,184.269,0.346,0.219,0.047,0.052,0.108,0.124,0.103,233.493,0.199,0.191,0.029,0.055,0.141,0.223,0.162,219.88,0.181,0.19,0.065,0.106,0.158,0.195,0.105,247.866,0.251,0.154,0.044,0.076,0.157,0.185,0.132,85.516,0.255,0.212,0.028,0.02,0.176,0.14,0.169,CN,3
1,148.661,0.583,0.192,0.017,0.038,0.063,0.06,0.047,199.016,0.447,0.16,0.023,0.037,0.109,0.142,0.081,109.093,0.64,0.189,0.02,0.034,0.042,0.037,0.04,201.449,0.401,0.167,0.027,0.049,0.103,0.146,0.107,257.054,0.308,0.158,0.069,0.059,0.145,0.147,0.114,336.587,0.165,0.17,0.032,0.119,0.174,0.164,0.177,330.769,0.179,0.147,0.02,0.077,0.148,0.196,0.233,58.081,0.768,0.151,0.004,0.001,0.009,0.02,0.047,174.201,0.396,0.192,0.018,0.064,0.108,0.137,0.086,105.718,0.591,0.217,0.014,0.036,0.057,0.044,0.041,176.641,0.407,0.167,0.024,0.081,0.102,0.124,0.096,223.581,0.159,0.187,0.062,0.148,0.186,0.164,0.093,216.125,0.214,0.106,0.037,0.192,0.186,0.156,0.109,39.492,0.235,0.574,0.006,0.007,0.079,0.054,0.046,CN,3
1,147.206,0.32,0.055,0.03,0.006,0.112,0.225,0.253,154.369,0.206,0.075,0.017,0.009,0.132,0.285,0.275,116.085,0.356,0.065,0.026,0.008,0.073,0.173,0.3,186.099,0.133,0.045,0.025,0.01,0.119,0.342,0.326,181.944,0.132,0.077,0.01,0.007,0.164,0.247,0.363,175.288,0.137,0.059,0.008,0.003,0.098,0.193,0.501,31.483,0.182,0.085,0.002,0.002,0.076,0.295,0.357,107.978,0.622,0.202,0.02,0.007,0.063,0.033,0.052,145.841,0.222,0.077,0.035,0.016,0.121,0.271,0.258,113.416,0.311,0.092,0.027,0.012,0.081,0.22,0.256,151.161,0.158,0.051,0.016,0.01,0.113,0.301,0.35,143.414,0.11,0.078,0.028,0.014,0.164,0.269,0.335,124.133,0.278,0.038,0.018,0.013,0.165,0.156,0.332,53.858,0.465,0.194,0.02,0.01,0.113,0.085,0.113,CN,3
1,197.908,0.484,0.166,0.047,0.03,0.088,0.101,0.085,181.123,0.408,0.199,0.049,0.035,0.08,0.137,0.093,124.127,0.53,0.126,0.036,0.033,0.085,0.093,0.097,134.591,0.357,0.124,0.056,0.046,0.103,0.181,0.134,238.457,0.186,0.223,0.07,0.101,0.124,0.127,0.169,214.641,0.258,0.122,0.076,0.058,0.129,0.16,0.198,26.621,0.9,0.045,0.01,0.007,0.013,0.009,0.016,138.041,0.581,0.262,0.048,0.017,0.034,0.035,0.022,198.003,0.316,0.231,0.059,0.071,0.089,0.138,0.096,176.777,0.429,0.142,0.044,0.038,0.126,0.112,0.109,222.079,0.296,0.153,0.073,0.074,0.125,0.149,0.13,176.126,0.241,0.15,0.076,0.111,0.172,0.129,0.121,170.504,0.32,0.12,0.063,0.073,0.147,0.154,0.122,93.816,0.531,0.093,0.009,0.017,0.136,0.095,0.119,CN,3
1,162.013,0.567,0.181,0.026,0.026,0.081,0.063,0.056,197.076,0.398,0.194,0.04,0.064,0.115,0.106,0.083,112.67,0.641,0.19,0.025,0.014,0.043,0.041,0.044,128.855,0.707,0.111,0.013,0.014,0.059,0.051,0.045,233.834,0.29,0.216,0.099,0.033,0.116,0.12,0.127,303.438,0.272,0.196,0.049,0.022,0.119,0.143,0.198,74.777,0.731,0.087,0.021,0.021,0.034,0.04,0.065,150.556,0.648,0.238,0.022,0.005,0.027,0.033,0.027,170.163,0.51,0.165,0.033,0.033,0.101,0.087,0.071,93.196,0.63,0.173,0.02,0.012,0.061,0.05,0.054,146.64,0.49,0.13,0.022,0.037,0.115,0.096,0.11,190.748,0.262,0.2,0.096,0.024,0.174,0.127,0.118,151.399,0.459,0.173,0.03,0.03,0.094,0.111,0.102,114.182,0.435,0.128,0.04,0.015,0.141,0.117,0.124,CN,3
1,186.36,0.466,0.237,0.05,0.051,0.06,0.074,0.061,222.12,0.28,0.238,0.063,0.073,0.092,0.132,0.122,159.603,0.545,0.244,0.044,0.039,0.04,0.041,0.047,202.352,0.316,0.172,0.056,0.031,0.133,0.156,0.135,260.923,0.309,0.105,0.081,0.082,0.17,0.123,0.131,320.732,0.165,0.101,0.097,0.091,0.164,0.152,0.231,202.124,0.372,0.081,0.048,0.045,0.087,0.134,0.233,107.412,0.739,0.152,0.023,0.008,0.03,0.025,0.023,196.734,0.329,0.213,0.055,0.089,0.095,0.111,0.107,143.944,0.575,0.203,0.027,0.034,0.044,0.049,0.067,212.47,0.375,0.177,0.037,0.074,0.09,0.106,0.141,225.015,0.186,0.081,0.175,0.053,0.197,0.162,0.145,237.579,0.27,0.109,0.072,0.08,0.147,0.138,0.184,98.994,0.44,0.207,0.018,0.024,0.1,0.097,0.114,CN,3
1,167.105,0.365,0.252,0.04,0.042,0.107,0.084,0.11,204.915,0.275,0.248,0.062,0.053,0.128,0.12,0.114,144.347,0.405,0.142,0.038,0.045,0.113,0.099,0.157,219.188,0.317,0.108,0.063,0.045,0.124,0.152,0.191,261.359,0.28,0.175,0.017,0.049,0.179,0.121,0.179,311.034,0.216,0.16,0.036,0.04,0.166,0.145,0.237,293.652,0.217,0.089,0.042,0.035,0.165,0.136,0.316,158.957,0.715,0.145,0.032,0.01,0.046,0.028,0.025,197.081,0.287,0.213,0.047,0.059,0.142,0.134,0.118,113.987,0.515,0.213,0.029,0.024,0.065,0.075,0.079,182.794,0.352,0.206,0.037,0.045,0.11,0.137,0.112,212.739,0.18,0.167,0.05,0.069,0.226,0.177,0.132,219.304,0.295,0.179,0.04,0.061,0.124,0.142,0.158,92.555,0.477,0.166,0.015,0.023,0.086,0.118,0.116,CN,3
1,147.703,0.419,0.284,0.045,0.01,0.065,0.083,0.095,182.38,0.329,0.259,0.074,0.015,0.074,0.127,0.122,130.147,0.493,0.233,0.033,0.009,0.057,0.078,0.097,191.378,0.37,0.244,0.042,0.011,0.063,0.113,0.157,244.31,0.247,0.213,0.024,0.052,0.144,0.137,0.184,316.933,0.104,0.165,0.021,0.033,0.174,0.207,0.296,261.221,0.089,0.088,0.013,0.026,0.092,0.211,0.482,180.595,0.5,0.166,0.036,0.019,0.086,0.095,0.099,177.144,0.344,0.246,0.062,0.009,0.09,0.118,0.13,113.108,0.533,0.181,0.033,0.013,0.074,0.077,0.089,177.151,0.343,0.174,0.057,0.015,0.088,0.145,0.176,216.59,0.304,0.12,0.039,0.061,0.182,0.147,0.146,212.909,0.259,0.108,0.032,0.031,0.145,0.166,0.259,81.063,0.357,0.252,0.04,0.021,0.114,0.122,0.094,CN,3
1,135.971,0.787,0.093,0.01,0.015,0.029,0.036,0.031,180.957,0.617,0.134,0.009,0.015,0.075,0.087,0.064,104.102,0.837,0.089,0.009,0.014,0.014,0.018,0.02,183.109,0.674,0.121,0.013,0.019,0.05,0.062,0.062,228.147,0.276,0.209,0.069,0.081,0.129,0.098,0.137,283.534,0.378,0.142,0.026,0.047,0.133,0.111,0.164,250.96,0.561,0.082,0.008,0.031,0.06,0.105,0.152,117.23,0.578,0.251,0.018,0.013,0.049,0.046,0.046,163.362,0.608,0.133,0.013,0.015,0.071,0.087,0.072,89.971,0.794,0.091,0.013,0.017,0.023,0.031,0.031,150.152,0.667,0.101,0.016,0.018,0.052,0.078,0.068,203.902,0.345,0.17,0.086,0.049,0.138,0.1,0.112,171.928,0.72,0.076,0.028,0.014,0.053,0.052,0.058,32.995,0.65,0.257,0.025,0.016,0.023,0.014,0.015,CN,3
1,163.987,0.575,0.213,0.021,0.019,0.047,0.07,0.054,198.694,0.4,0.208,0.041,0.041,0.084,0.131,0.095,111.544,0.749,0.176,0.012,0.004,0.015,0.023,0.021,212.819,0.482,0.218,0.026,0.024,0.06,0.094,0.097,234.72,0.581,0.131,0.022,0.014,0.078,0.097,0.077,280.424,0.337,0.143,0.035,0.023,0.13,0.173,0.159,328.385,0.208,0.167,0.02,0.054,0.167,0.174,0.211,114.461,0.476,0.274,0.019,0.007,0.093,0.067,0.064,176.029,0.507,0.173,0.035,0.024,0.067,0.108,0.086,97.358,0.63,0.17,0.017,0.011,0.047,0.063,0.061,155.636,0.598,0.11,0.026,0.022,0.065,0.108,0.071,186.957,0.518,0.147,0.031,0.019,0.116,0.101,0.068,168.649,0.65,0.127,0.016,0.029,0.056,0.065,0.058,58.231,0.442,0.297,0.012,0.019,0.074,0.079,0.078,CN,3
1,138.213,0.721,0.161,0.029,0.01,0.026,0.029,0.024,189.758,0.455,0.176,0.064,0.038,0.088,0.112,0.066,92.042,0.803,0.145,0.015,0.004,0.01,0.009,0.013,180.37,0.648,0.168,0.032,0.014,0.045,0.049,0.044,235.943,0.552,0.153,0.037,0.03,0.088,0.077,0.063,289.118,0.368,0.205,0.031,0.026,0.129,0.125,0.116,323.81,0.308,0.225,0.057,0.032,0.104,0.119,0.155,35.524,0.906,0.085,0.002,0.001,0.003,0.002,0.001,174.384,0.444,0.203,0.071,0.034,0.093,0.085,0.07,90.842,0.719,0.166,0.029,0.012,0.026,0.025,0.023,150.015,0.56,0.15,0.064,0.027,0.071,0.063,0.064,194.577,0.452,0.185,0.046,0.026,0.117,0.105,0.069,165.121,0.603,0.134,0.058,0.022,0.062,0.064,0.056,60.647,0.248,0.366,0.007,0.043,0.131,0.092,0.113,CN,3
1,129.22,0.68,0.19,0.029,0.01,0.03,0.032,0.03,179.352,0.503,0.167,0.053,0.024,0.089,0.093,0.071,84.24,0.755,0.187,0.014,0.003,0.012,0.011,0.017,146.135,0.421,0.218,0.04,0.037,0.108,0.095,0.08,213.443,0.459,0.178,0.095,0.029,0.099,0.074,0.065,294.306,0.361,0.224,0.035,0.039,0.115,0.11,0.116,210.875,0.53,0.126,0.044,0.02,0.079,0.073,0.129,68.823,0.745,0.177,0.017,0.006,0.017,0.018,0.021,164.924,0.598,0.15,0.043,0.012,0.076,0.065,0.056,75.255,0.777,0.157,0.021,0.009,0.013,0.012,0.013,125.179,0.73,0.15,0.027,0.01,0.027,0.03,0.027,167.639,0.571,0.148,0.058,0.019,0.088,0.073,0.043,130.49,0.73,0.155,0.021,0.009,0.031,0.029,0.024,57.804,0.344,0.336,0.032,0.026,0.1,0.076,0.086,CN,3
1,143.717,0.51,0.097,0.048,0.014,0.062,0.115,0.156,178.502,0.406,0.118,0.063,0.013,0.068,0.151,0.181,99.165,0.685,0.075,0.025,0.009,0.037,0.055,0.114,169.431,0.377,0.079,0.084,0.01,0.072,0.161,0.217,196.382,0.39,0.132,0.013,0.047,0.077,0.143,0.198,201.776,0.489,0.068,0.009,0.029,0.076,0.076,0.254,41.818,0.9,0.043,0.001,0.002,0.006,0.022,0.026,105.515,0.741,0.153,0.026,0.006,0.021,0.023,0.03,166.473,0.429,0.102,0.048,0.013,0.074,0.16,0.172,92.333,0.658,0.067,0.019,0.008,0.046,0.07,0.133,151.252,0.455,0.055,0.034,0.01,0.061,0.173,0.21,160.365,0.443,0.102,0.02,0.038,0.1,0.137,0.159,134.554,0.583,0.077,0.017,0.011,0.062,0.098,0.153,59.132,0.521,0.161,0.044,0.028,0.079,0.088,0.078,CN,3
1,186.199,0.387,0.102,0.096,0.076,0.094,0.156,0.088,203.334,0.331,0.119,0.134,0.052,0.096,0.165,0.104,160.431,0.46,0.096,0.078,0.065,0.096,0.124,0.081,217.552,0.196,0.108,0.181,0.07,0.136,0.196,0.112,240.767,0.366,0.151,0.066,0.094,0.108,0.091,0.124,268.788,0.339,0.109,0.071,0.081,0.121,0.129,0.15,56.178,0.793,0.083,0.021,0.015,0.029,0.027,0.032,120.684,0.526,0.215,0.061,0.025,0.035,0.073,0.064,180.56,0.315,0.176,0.107,0.063,0.112,0.142,0.085,109.892,0.671,0.066,0.046,0.067,0.038,0.07,0.042,166.158,0.418,0.069,0.1,0.108,0.087,0.141,0.076,191.049,0.261,0.103,0.145,0.165,0.14,0.102,0.084,172.074,0.407,0.068,0.123,0.132,0.083,0.108,0.079,66.96,0.333,0.223,0.035,0.015,0.139,0.122,0.132,CN,3
1,180.101,0.337,0.152,0.113,0.081,0.079,0.145,0.094,206.071,0.329,0.12,0.117,0.074,0.095,0.158,0.107,148.601,0.404,0.134,0.1,0.049,0.065,0.131,0.117,200.48,0.356,0.124,0.095,0.058,0.089,0.176,0.103,256.313,0.191,0.265,0.096,0.125,0.125,0.101,0.097,322.548,0.101,0.206,0.088,0.137,0.139,0.153,0.177,148.999,0.547,0.082,0.046,0.069,0.059,0.098,0.099,125.513,0.672,0.14,0.029,0.01,0.032,0.047,0.071,181.081,0.485,0.12,0.071,0.075,0.059,0.123,0.067,141.161,0.442,0.11,0.077,0.088,0.068,0.113,0.102,206.032,0.31,0.123,0.085,0.122,0.102,0.163,0.095,207.147,0.177,0.199,0.113,0.182,0.139,0.11,0.081,229.852,0.285,0.107,0.095,0.172,0.122,0.129,0.09,61.93,0.296,0.339,0.045,0.047,0.109,0.084,0.08,CN,3
1,176.138,0.48,0.222,0.043,0.02,0.075,0.094,0.066,210.629,0.304,0.212,0.068,0.033,0.103,0.173,0.107,143.144,0.594,0.179,0.036,0.016,0.051,0.06,0.063,217.783,0.369,0.196,0.075,0.025,0.091,0.131,0.113,274.899,0.267,0.15,0.103,0.049,0.177,0.126,0.127,320.742,0.241,0.169,0.065,0.035,0.182,0.127,0.18,287.548,0.278,0.138,0.063,0.035,0.127,0.165,0.194,131.166,0.675,0.173,0.016,0.008,0.031,0.044,0.054,191.237,0.343,0.245,0.046,0.04,0.099,0.15,0.077,131.769,0.608,0.162,0.032,0.018,0.066,0.065,0.05,202.386,0.402,0.203,0.048,0.036,0.092,0.125,0.095,220.477,0.354,0.149,0.098,0.066,0.134,0.125,0.075,223.741,0.481,0.132,0.045,0.043,0.095,0.123,0.079,48.831,0.528,0.211,0.021,0.028,0.071,0.07,0.071,CN,3
1,134.359,0.762,0.092,0.031,0.012,0.028,0.044,0.031,156.228,0.593,0.165,0.051,0.01,0.042,0.087,0.052,108.748,0.856,0.059,0.012,0.008,0.015,0.022,0.027,171.523,0.684,0.109,0.032,0.01,0.038,0.064,0.063,214.012,0.511,0.169,0.019,0.088,0.085,0.06,0.068,255.09,0.462,0.208,0.017,0.034,0.107,0.087,0.086,252.915,0.39,0.203,0.02,0.048,0.097,0.109,0.133,116.544,0.557,0.153,0.013,0.01,0.047,0.088,0.132,166.6,0.546,0.154,0.072,0.039,0.043,0.093,0.054,106.654,0.762,0.078,0.013,0.017,0.031,0.055,0.042,140.085,0.657,0.088,0.034,0.03,0.052,0.082,0.057,183.392,0.412,0.16,0.046,0.129,0.097,0.091,0.065,194.834,0.522,0.106,0.048,0.061,0.069,0.107,0.088,45.353,0.608,0.162,0.01,0.017,0.078,0.064,0.062,CN,3
1,175.022,0.601,0.154,0.072,0.022,0.044,0.063,0.044,205.322,0.393,0.137,0.132,0.043,0.076,0.142,0.077,130.447,0.625,0.226,0.04,0.009,0.029,0.037,0.034,205.179,0.463,0.154,0.108,0.026,0.073,0.099,0.077,245.784,0.235,0.179,0.057,0.074,0.155,0.162,0.138,288.261,0.304,0.134,0.071,0.05,0.161,0.141,0.139,279.878,0.444,0.135,0.043,0.034,0.098,0.097,0.148,129.072,0.615,0.229,0.025,0.01,0.029,0.043,0.049,196.414,0.399,0.147,0.139,0.037,0.083,0.125,0.07,120.336,0.673,0.168,0.044,0.014,0.031,0.038,0.032,172.081,0.542,0.145,0.096,0.024,0.058,0.078,0.056,196.3,0.337,0.166,0.06,0.067,0.144,0.138,0.089,190.475,0.441,0.172,0.082,0.039,0.086,0.108,0.074,49.765,0.543,0.163,0.009,0.015,0.072,0.097,0.101,CN,3
1,141.028,0.478,0.086,0.021,0.017,0.053,0.099,0.245,165.228,0.279,0.063,0.021,0.026,0.09,0.149,0.372,115.128,0.535,0.072,0.013,0.011,0.04,0.103,0.226,171.713,0.302,0.055,0.021,0.018,0.06,0.184,0.36,218.513,0.14,0.114,0.027,0.028,0.111,0.163,0.418,241.256,0.131,0.061,0.02,0.016,0.09,0.191,0.492,79.792,0.253,0.024,0.001,0.002,0.055,0.135,0.531,149.86,0.461,0.119,0.018,0.014,0.126,0.113,0.149,159.119,0.349,0.071,0.018,0.029,0.089,0.122,0.322,112.351,0.544,0.094,0.025,0.02,0.042,0.079,0.197,158.973,0.297,0.063,0.037,0.033,0.076,0.155,0.338,183.743,0.107,0.073,0.032,0.051,0.132,0.164,0.442,153.366,0.058,0.036,0.022,0.027,0.118,0.172,0.566,64.864,0.452,0.131,0.019,0.03,0.092,0.132,0.144,CN,3
1,146.529,0.607,0.184,0.032,0.018,0.038,0.064,0.057,184.826,0.41,0.207,0.055,0.024,0.072,0.142,0.091,112.716,0.68,0.198,0.005,0.011,0.029,0.037,0.04,189.869,0.53,0.169,0.012,0.017,0.065,0.121,0.086,233.553,0.402,0.123,0.044,0.095,0.12,0.091,0.125,289.294,0.264,0.169,0.031,0.061,0.144,0.109,0.222,112.168,0.613,0.083,0.023,0.02,0.062,0.094,0.104,138.096,0.592,0.141,0.02,0.01,0.062,0.072,0.103,176.006,0.287,0.282,0.055,0.05,0.085,0.141,0.1,97.695,0.59,0.207,0.032,0.031,0.042,0.049,0.05,158.456,0.494,0.184,0.049,0.045,0.056,0.106,0.066,192.478,0.291,0.163,0.052,0.186,0.098,0.112,0.099,151.277,0.361,0.189,0.042,0.108,0.087,0.112,0.101,22.271,0.765,0.157,0.013,0.007,0.023,0.016,0.019,CN,3
1,156.178,0.632,0.04,0.018,0.015,0.047,0.077,0.171,186.541,0.488,0.053,0.028,0.021,0.077,0.109,0.224,122.572,0.726,0.048,0.011,0.007,0.031,0.06,0.116,108.873,0.779,0.043,0.012,0.011,0.03,0.043,0.081,242.973,0.272,0.139,0.016,0.029,0.109,0.126,0.309,273.63,0.271,0.081,0.013,0.015,0.075,0.151,0.395,91.381,0.609,0.01,0.002,0.001,0.017,0.102,0.259,64.829,0.892,0.076,0.005,0.004,0.007,0.007,0.01,165.676,0.521,0.089,0.027,0.012,0.082,0.095,0.174,119.154,0.751,0.042,0.015,0.007,0.029,0.056,0.1,180.219,0.497,0.046,0.023,0.019,0.066,0.096,0.253,201.156,0.304,0.108,0.033,0.02,0.095,0.138,0.301,189.975,0.351,0.073,0.027,0.018,0.082,0.16,0.287,13.125,0.784,0.096,0.013,0.012,0.026,0.038,0.032,CN,3
1,154.903,0.691,0.139,0.042,0.017,0.048,0.034,0.03,211.778,0.384,0.217,0.086,0.025,0.123,0.084,0.081,114.276,0.8,0.112,0.028,0.008,0.019,0.017,0.016,156.649,0.583,0.13,0.074,0.023,0.064,0.073,0.053,261.24,0.344,0.244,0.039,0.035,0.121,0.105,0.112,308.922,0.199,0.239,0.062,0.036,0.125,0.163,0.175,188.655,0.311,0.113,0.074,0.069,0.113,0.138,0.182,108.162,0.642,0.139,0.008,0.016,0.049,0.067,0.079,189.444,0.43,0.197,0.078,0.023,0.114,0.082,0.076,126.4,0.763,0.102,0.033,0.009,0.037,0.029,0.027,94.354,0.078,0.015,0.011,0.003,0.014,0.439,0.44,230.445,0.141,0.254,0.155,0.061,0.147,0.131,0.111,255.083,0.251,0.169,0.16,0.049,0.14,0.135,0.096,22.805,0.751,0.08,0.012,0.029,0.045,0.045,0.038,CN,3
1,158.799,0.473,0.234,0.04,0.024,0.073,0.093,0.063,200.411,0.243,0.268,0.055,0.041,0.117,0.167,0.109,124.52,0.589,0.206,0.027,0.013,0.056,0.06,0.05,186.679,0.498,0.164,0.04,0.019,0.093,0.112,0.075,251.778,0.401,0.158,0.018,0.06,0.118,0.109,0.136,298.956,0.161,0.244,0.029,0.045,0.175,0.158,0.187,259.802,0.375,0.14,0.039,0.023,0.112,0.127,0.183,165.026,0.386,0.177,0.049,0.053,0.098,0.076,0.16,188.935,0.339,0.219,0.049,0.052,0.112,0.138,0.092,132.145,0.523,0.194,0.031,0.021,0.071,0.076,0.083,192.114,0.32,0.196,0.058,0.051,0.124,0.141,0.11,208.177,0.239,0.207,0.051,0.089,0.183,0.128,0.103,224.368,0.222,0.179,0.05,0.084,0.164,0.169,0.132,39.078,0.35,0.231,0.067,0.035,0.099,0.128,0.089,CN,3
1,189.537,0.363,0.309,0.021,0.014,0.096,0.117,0.081,217.68,0.208,0.354,0.037,0.022,0.132,0.158,0.09,156.613,0.469,0.253,0.02,0.019,0.063,0.091,0.085,225.869,0.236,0.266,0.042,0.018,0.127,0.193,0.118,257.066,0.387,0.222,0.027,0.053,0.122,0.099,0.09,310.029,0.272,0.255,0.02,0.037,0.15,0.12,0.146,321.314,0.343,0.177,0.029,0.034,0.133,0.116,0.167,160.909,0.42,0.195,0.105,0.02,0.067,0.13,0.063,216.183,0.241,0.296,0.028,0.032,0.13,0.171,0.101,156.985,0.483,0.226,0.026,0.022,0.072,0.102,0.07,216.881,0.264,0.271,0.038,0.038,0.112,0.16,0.118,219.801,0.288,0.201,0.017,0.083,0.164,0.158,0.089,239.418,0.289,0.255,0.039,0.048,0.125,0.147,0.096,39.606,0.402,0.237,0.027,0.022,0.086,0.115,0.11,CN,3
1,151.642,0.498,0.275,0.027,0.061,0.044,0.055,0.041,194.446,0.356,0.222,0.026,0.081,0.101,0.124,0.09,100.507,0.578,0.282,0.034,0.027,0.027,0.031,0.022,173.954,0.413,0.249,0.037,0.069,0.071,0.095,0.066,252.872,0.255,0.201,0.056,0.071,0.176,0.129,0.113,320.781,0.176,0.155,0.064,0.107,0.158,0.176,0.163,280.684,0.391,0.133,0.045,0.091,0.102,0.121,0.116,134.924,0.685,0.191,0.009,0.008,0.028,0.042,0.036,178.61,0.346,0.237,0.028,0.102,0.111,0.095,0.081,130.256,0.514,0.255,0.029,0.058,0.049,0.046,0.049,196.536,0.376,0.195,0.026,0.134,0.092,0.091,0.086,210.632,0.184,0.143,0.084,0.246,0.158,0.108,0.077,214.807,0.213,0.128,0.034,0.297,0.113,0.117,0.098,40.51,0.546,0.196,0.023,0.01,0.065,0.079,0.081,CN,3
1,138.359,0.488,0.184,0.109,0.016,0.061,0.091,0.051,182.015,0.313,0.239,0.129,0.021,0.097,0.128,0.072,96.016,0.613,0.175,0.057,0.013,0.043,0.052,0.047,166.279,0.346,0.208,0.119,0.017,0.102,0.128,0.08,242.725,0.225,0.22,0.05,0.053,0.2,0.136,0.116,217.229,0.546,0.136,0.049,0.023,0.079,0.081,0.086,313.163,0.174,0.181,0.115,0.044,0.129,0.164,0.193,142.479,0.68,0.101,0.094,0.016,0.039,0.036,0.035,167.471,0.363,0.184,0.144,0.025,0.089,0.132,0.062,109.948,0.515,0.168,0.09,0.013,0.059,0.091,0.065,175.618,0.341,0.166,0.158,0.024,0.084,0.143,0.085,189.467,0.222,0.204,0.085,0.062,0.216,0.141,0.071,186.062,0.253,0.198,0.109,0.048,0.115,0.179,0.098,39.149,0.493,0.279,0.013,0.019,0.076,0.058,0.062,CN,3
1,138.795,0.803,0.088,0.013,0.008,0.025,0.036,0.028,183.215,0.479,0.234,0.046,0.018,0.081,0.083,0.059,92.896,0.859,0.089,0.012,0.003,0.011,0.011,0.014,174.019,0.732,0.09,0.025,0.007,0.041,0.058,0.047,225.315,0.479,0.148,0.054,0.032,0.129,0.085,0.073,255.059,0.354,0.141,0.025,0.035,0.167,0.119,0.159,329.658,0.303,0.157,0.049,0.03,0.135,0.152,0.175,129.482,0.309,0.042,0.021,0.008,0.073,0.158,0.389,177.494,0.557,0.173,0.038,0.027,0.079,0.077,0.05,101.661,0.813,0.091,0.011,0.007,0.025,0.029,0.024,168.464,0.666,0.096,0.022,0.018,0.051,0.088,0.058,186.791,0.481,0.095,0.087,0.039,0.137,0.11,0.052,182.676,0.649,0.089,0.027,0.024,0.068,0.084,0.058,27.227,0.438,0.353,0.041,0.035,0.064,0.04,0.029,CN,3
3,138.655,0.124,0.059,0.017,0.021,0.126,0.248,0.404,175.998,0.261,0.069,0.012,0.012,0.068,0.27,0.308,114.443,0.461,0.056,0.017,0.018,0.074,0.142,0.232,104.965,0.291,0.054,0.011,0.018,0.09,0.197,0.338,165.097,0.167,0.056,0.022,0.027,0.137,0.25,0.341,128.779,0.017,0.02,0.007,0.013,0.114,0.355,0.473,118.536,0.135,0.012,0.007,0.017,0.088,0.296,0.445,113.87,0.593,0.057,0.014,0.011,0.069,0.134,0.123,158.399,0.32,0.07,0.016,0.02,0.076,0.217,0.281,40.986,0.833,0.099,0.007,0.004,0.008,0.025,0.024,98.076,0.558,0.079,0.006,0.009,0.049,0.147,0.151,146.711,0.166,0.067,0.013,0.023,0.124,0.258,0.349,112.555,0.117,0.027,0.01,0.013,0.093,0.267,0.474,167.849,0.14,0.04,0.012,0.034,0.233,0.254,0.286,DYS,1
3,21.312,0.488,0.042,0.007,0.014,0.078,0.197,0.175,165.734,0.494,0.121,0.039,0.016,0.085,0.119,0.126,23.214,0.437,0.071,0.008,0.018,0.107,0.186,0.173,92.054,0.24,0.027,0.016,0.015,0.109,0.243,0.35,107.134,0.096,0.06,0.018,0.035,0.148,0.347,0.297,101.495,0.063,0.023,0.009,0.01,0.101,0.378,0.416,101.286,0.229,0.029,0.01,0.01,0.095,0.348,0.278,142.815,0.544,0.1,0.022,0.024,0.045,0.113,0.153,140.566,0.525,0.119,0.041,0.012,0.076,0.111,0.116,39.447,0.787,0.146,0.01,0.004,0.01,0.02,0.023,93.678,0.57,0.105,0.015,0.005,0.045,0.122,0.137,126.042,0.098,0.094,0.013,0.025,0.167,0.316,0.286,104.88,0.06,0.032,0.012,0.02,0.154,0.351,0.371,181.124,0.095,0.069,0.046,0.058,0.186,0.224,0.322,DYS,1
3,20.371,0.941,0.027,0.004,0.003,0.007,0.007,0.011,154.485,0.413,0.154,0.04,0.022,0.075,0.146,0.151,17.673,0.936,0.028,0.004,0.005,0.008,0.008,0.012,98.497,0.441,0.062,0.003,0.012,0.082,0.189,0.212,129.149,0.373,0.079,0.033,0.014,0.16,0.14,0.203,113.786,0.18,0.034,0.01,0.015,0.139,0.248,0.373,102.111,0.212,0.038,0.007,0.013,0.154,0.254,0.322,172.544,0.388,0.084,0.011,0.041,0.081,0.206,0.189,115.632,0.533,0.14,0.037,0.012,0.061,0.1,0.117,16.728,0.985,0.01,0.0,0.001,0.001,0.002,0.002,82.51,0.776,0.02,0.002,0.01,0.023,0.074,0.094,129.287,0.24,0.104,0.022,0.017,0.202,0.152,0.264,99.692,0.331,0.061,0.012,0.008,0.115,0.204,0.269,172.437,0.148,0.069,0.038,0.027,0.131,0.236,0.351,DYS,1
3,51.675,0.646,0.137,0.017,0.008,0.052,0.062,0.078,137.531,0.247,0.091,0.019,0.007,0.059,0.231,0.346,41.621,0.666,0.107,0.018,0.013,0.048,0.073,0.077,123.342,0.348,0.049,0.021,0.019,0.128,0.188,0.246,167.898,0.212,0.038,0.019,0.033,0.155,0.211,0.332,152.392,0.055,0.025,0.008,0.012,0.173,0.362,0.366,105.851,0.395,0.099,0.014,0.011,0.09,0.198,0.193,187.855,0.413,0.165,0.051,0.032,0.072,0.135,0.132,113.37,0.335,0.1,0.025,0.007,0.05,0.196,0.288,30.86,0.747,0.168,0.011,0.004,0.009,0.03,0.03,89.891,0.453,0.116,0.014,0.01,0.051,0.179,0.175,152.577,0.118,0.051,0.025,0.025,0.25,0.238,0.294,107.873,0.2,0.097,0.018,0.029,0.161,0.228,0.267,199.466,0.171,0.112,0.021,0.02,0.187,0.209,0.279,DYS,1
3,86.562,0.64,0.134,0.02,0.011,0.05,0.067,0.078,141.241,0.379,0.088,0.013,0.012,0.065,0.231,0.211,74.31,0.663,0.102,0.019,0.013,0.034,0.075,0.095,126.861,0.276,0.07,0.02,0.016,0.081,0.181,0.356,185.079,0.135,0.097,0.035,0.041,0.164,0.242,0.286,164.147,0.079,0.022,0.012,0.015,0.16,0.362,0.35,136.334,0.16,0.037,0.009,0.005,0.159,0.316,0.312,171.435,0.579,0.083,0.005,0.013,0.051,0.155,0.113,124.994,0.425,0.091,0.014,0.01,0.056,0.196,0.208,42.695,0.778,0.151,0.011,0.003,0.012,0.024,0.021,99.252,0.495,0.119,0.012,0.011,0.068,0.165,0.131,156.939,0.175,0.086,0.037,0.058,0.164,0.226,0.253,137.282,0.276,0.08,0.026,0.024,0.145,0.217,0.231,178.823,0.135,0.11,0.078,0.071,0.167,0.193,0.247,DYS,1
3,92.086,0.811,0.049,0.004,0.009,0.037,0.04,0.049,144.49,0.31,0.086,0.013,0.027,0.051,0.255,0.256,72.11,0.833,0.057,0.005,0.011,0.029,0.025,0.041,108.921,0.574,0.051,0.005,0.014,0.095,0.11,0.152,171.327,0.282,0.126,0.023,0.032,0.206,0.166,0.166,182.021,0.11,0.065,0.008,0.007,0.188,0.25,0.372,176.031,0.137,0.037,0.004,0.018,0.157,0.309,0.339,142.123,0.386,0.218,0.027,0.019,0.073,0.131,0.147,124.686,0.444,0.081,0.014,0.022,0.051,0.185,0.203,47.417,0.796,0.151,0.008,0.002,0.007,0.016,0.021,108.626,0.557,0.11,0.007,0.008,0.055,0.101,0.162,151.797,0.238,0.073,0.024,0.023,0.296,0.165,0.181,143.46,0.438,0.117,0.025,0.018,0.127,0.121,0.153,188.542,0.174,0.118,0.015,0.092,0.169,0.204,0.228,DYS,1
3,104.067,0.652,0.157,0.012,0.011,0.05,0.06,0.058,145.0,0.268,0.086,0.014,0.021,0.081,0.245,0.285,92.395,0.712,0.108,0.012,0.021,0.036,0.048,0.064,150.154,0.381,0.116,0.013,0.027,0.112,0.149,0.201,211.49,0.319,0.112,0.026,0.017,0.215,0.129,0.182,217.112,0.144,0.054,0.012,0.012,0.193,0.216,0.368,198.552,0.138,0.048,0.009,0.021,0.162,0.221,0.402,169.23,0.369,0.081,0.012,0.016,0.124,0.236,0.161,126.745,0.354,0.069,0.01,0.019,0.062,0.212,0.274,48.082,0.84,0.11,0.005,0.004,0.011,0.014,0.016,109.355,0.605,0.083,0.011,0.01,0.05,0.106,0.137,180.132,0.277,0.098,0.04,0.022,0.234,0.161,0.169,180.445,0.325,0.11,0.021,0.017,0.195,0.135,0.197,192.837,0.221,0.105,0.037,0.015,0.152,0.226,0.246,DYS,1
3,109.776,0.683,0.113,0.004,0.008,0.053,0.062,0.077,134.079,0.334,0.096,0.047,0.013,0.061,0.241,0.207,99.126,0.653,0.121,0.011,0.006,0.051,0.068,0.09,141.161,0.308,0.133,0.009,0.013,0.106,0.207,0.224,199.717,0.129,0.154,0.016,0.048,0.227,0.21,0.216,196.622,0.07,0.05,0.011,0.052,0.202,0.314,0.302,185.096,0.068,0.054,0.008,0.02,0.159,0.3,0.391,196.874,0.248,0.13,0.012,0.092,0.127,0.21,0.182,115.213,0.449,0.085,0.034,0.014,0.053,0.194,0.172,53.551,0.845,0.096,0.009,0.004,0.011,0.019,0.017,123.157,0.601,0.071,0.012,0.008,0.062,0.134,0.112,166.588,0.165,0.15,0.044,0.06,0.226,0.17,0.185,161.892,0.269,0.109,0.032,0.025,0.163,0.181,0.222,158.951,0.133,0.039,0.007,0.011,0.152,0.268,0.39,DYS,1
3,106.441,0.584,0.105,0.007,0.012,0.09,0.093,0.109,146.301,0.437,0.091,0.015,0.015,0.079,0.208,0.155,82.961,0.571,0.171,0.007,0.019,0.078,0.062,0.092,133.919,0.51,0.114,0.012,0.015,0.109,0.092,0.147,189.817,0.279,0.173,0.024,0.02,0.207,0.129,0.169,195.902,0.126,0.076,0.033,0.015,0.214,0.225,0.311,178.949,0.116,0.044,0.014,0.009,0.196,0.212,0.408,165.42,0.435,0.173,0.023,0.022,0.056,0.132,0.158,129.028,0.488,0.109,0.009,0.015,0.069,0.168,0.143,46.345,0.855,0.101,0.01,0.007,0.009,0.01,0.009,105.196,0.685,0.096,0.011,0.018,0.041,0.076,0.072,164.606,0.195,0.147,0.055,0.04,0.262,0.146,0.156,151.833,0.27,0.101,0.053,0.026,0.161,0.156,0.233,164.11,0.17,0.046,0.08,0.026,0.146,0.232,0.3,DYS,1
3,94.545,0.708,0.1,0.01,0.007,0.061,0.059,0.056,156.028,0.455,0.118,0.015,0.022,0.072,0.15,0.169,78.402,0.705,0.119,0.01,0.008,0.057,0.047,0.053,132.503,0.446,0.092,0.018,0.023,0.13,0.131,0.159,179.235,0.247,0.084,0.019,0.06,0.224,0.209,0.157,153.676,0.039,0.09,0.02,0.042,0.249,0.321,0.238,107.985,0.393,0.193,0.023,0.029,0.085,0.14,0.136,158.032,0.401,0.076,0.025,0.048,0.076,0.201,0.173,134.029,0.476,0.144,0.011,0.011,0.059,0.131,0.167,41.342,0.832,0.129,0.008,0.003,0.008,0.011,0.01,92.708,0.625,0.107,0.021,0.009,0.055,0.093,0.09,150.474,0.23,0.078,0.03,0.05,0.234,0.213,0.165,145.261,0.278,0.101,0.017,0.024,0.189,0.178,0.215,168.892,0.083,0.091,0.029,0.01,0.214,0.227,0.346,DYS,1
3,99.701,0.661,0.171,0.019,0.012,0.039,0.048,0.049,161.013,0.488,0.086,0.009,0.009,0.071,0.175,0.161,102.17,0.665,0.139,0.027,0.009,0.051,0.049,0.06,132.26,0.605,0.1,0.023,0.016,0.074,0.075,0.107,159.473,0.41,0.161,0.023,0.014,0.185,0.1,0.108,174.057,0.34,0.117,0.03,0.016,0.141,0.162,0.194,158.738,0.322,0.082,0.036,0.019,0.119,0.168,0.254,151.015,0.503,0.064,0.014,0.038,0.087,0.153,0.141,141.35,0.559,0.082,0.011,0.01,0.054,0.14,0.144,44.869,0.766,0.169,0.015,0.01,0.012,0.017,0.012,103.447,0.594,0.137,0.013,0.024,0.064,0.097,0.072,149.339,0.367,0.108,0.017,0.05,0.214,0.132,0.113,152.625,0.472,0.101,0.024,0.026,0.138,0.102,0.136,184.114,0.251,0.098,0.02,0.018,0.164,0.201,0.248,DYS,1
3,99.528,0.697,0.109,0.021,0.006,0.058,0.054,0.055,172.066,0.386,0.113,0.008,0.019,0.074,0.218,0.182,79.626,0.798,0.11,0.011,0.003,0.023,0.026,0.029,118.031,0.558,0.103,0.017,0.02,0.088,0.109,0.106,166.152,0.332,0.122,0.045,0.03,0.159,0.175,0.137,51.35,0.131,0.041,0.027,0.016,0.134,0.384,0.268,168.238,0.238,0.041,0.011,0.022,0.161,0.252,0.275,57.547,0.864,0.061,0.003,0.002,0.015,0.02,0.035,149.941,0.41,0.123,0.011,0.023,0.064,0.189,0.181,48.887,0.869,0.068,0.003,0.004,0.015,0.02,0.021,116.026,0.566,0.062,0.009,0.008,0.085,0.129,0.142,149.078,0.286,0.117,0.022,0.043,0.262,0.139,0.131,142.798,0.605,0.09,0.012,0.014,0.094,0.092,0.094,209.683,0.129,0.153,0.028,0.018,0.178,0.223,0.271,DYS,1
3,104.14,0.705,0.146,0.011,0.007,0.052,0.033,0.046,156.524,0.547,0.146,0.014,0.021,0.05,0.136,0.084,79.808,0.575,0.183,0.027,0.013,0.085,0.05,0.067,127.968,0.385,0.128,0.02,0.041,0.198,0.083,0.145,145.857,0.401,0.125,0.026,0.017,0.176,0.092,0.162,19.461,0.971,0.015,0.002,0.001,0.002,0.002,0.006,144.637,0.285,0.09,0.027,0.011,0.13,0.127,0.33,81.139,0.593,0.079,0.026,0.019,0.06,0.096,0.126,133.974,0.632,0.112,0.013,0.02,0.043,0.103,0.075,49.649,0.807,0.118,0.012,0.008,0.012,0.021,0.02,110.582,0.575,0.086,0.021,0.027,0.045,0.125,0.121,153.168,0.248,0.225,0.041,0.042,0.174,0.108,0.162,132.196,0.464,0.134,0.042,0.013,0.093,0.086,0.168,204.518,0.163,0.099,0.046,0.046,0.209,0.179,0.257,DYS,1
3,106.328,0.568,0.144,0.03,0.011,0.061,0.076,0.11,148.139,0.557,0.158,0.02,0.027,0.041,0.105,0.092,62.325,0.661,0.133,0.01,0.006,0.044,0.063,0.082,126.805,0.304,0.139,0.015,0.013,0.084,0.171,0.274,144.454,0.299,0.139,0.022,0.037,0.139,0.165,0.199,5.212,0.689,0.084,0.023,0.025,0.067,0.061,0.052,119.195,0.324,0.038,0.007,0.003,0.078,0.222,0.328,81.756,0.796,0.101,0.018,0.012,0.022,0.031,0.02,126.65,0.575,0.152,0.017,0.021,0.038,0.094,0.103,51.493,0.721,0.112,0.016,0.01,0.022,0.053,0.067,111.936,0.301,0.079,0.01,0.025,0.093,0.216,0.275,158.066,0.183,0.103,0.043,0.036,0.194,0.225,0.216,137.262,0.373,0.074,0.022,0.012,0.129,0.173,0.217,192.742,0.16,0.108,0.058,0.075,0.271,0.149,0.179,DYS,1
3,86.767,0.547,0.175,0.019,0.012,0.077,0.078,0.093,162.473,0.434,0.155,0.023,0.057,0.076,0.148,0.107,84.352,0.578,0.162,0.016,0.018,0.071,0.06,0.094,113.143,0.466,0.137,0.015,0.015,0.113,0.087,0.166,85.474,0.722,0.131,0.009,0.003,0.055,0.04,0.04,3.049,0.736,0.114,0.017,0.006,0.066,0.037,0.024,131.264,0.398,0.113,0.014,0.017,0.085,0.149,0.223,150.532,0.282,0.072,0.019,0.024,0.066,0.24,0.296,139.882,0.476,0.15,0.019,0.039,0.073,0.125,0.118,45.255,0.805,0.133,0.009,0.004,0.012,0.021,0.015,110.398,0.562,0.115,0.015,0.015,0.056,0.136,0.102,135.509,0.393,0.156,0.022,0.01,0.204,0.088,0.128,118.709,0.588,0.123,0.019,0.012,0.112,0.062,0.084,188.057,0.102,0.088,0.028,0.056,0.245,0.169,0.312,DYS,1
3,80.257,0.634,0.142,0.024,0.017,0.052,0.062,0.068,168.841,0.432,0.098,0.018,0.016,0.09,0.195,0.151,80.406,0.619,0.159,0.02,0.009,0.055,0.062,0.076,93.481,0.616,0.143,0.018,0.015,0.057,0.068,0.082,68.2,0.704,0.141,0.018,0.015,0.057,0.032,0.032,4.355,0.678,0.174,0.017,0.015,0.056,0.038,0.023,97.872,0.569,0.141,0.015,0.016,0.061,0.095,0.103,159.492,0.444,0.16,0.041,0.024,0.076,0.125,0.13,146.852,0.518,0.075,0.012,0.014,0.069,0.172,0.139,48.064,0.863,0.1,0.011,0.004,0.005,0.009,0.008,115.155,0.768,0.075,0.017,0.01,0.021,0.055,0.053,89.914,0.555,0.146,0.02,0.03,0.103,0.066,0.08,73.09,0.737,0.12,0.015,0.014,0.04,0.035,0.04,196.901,0.156,0.105,0.044,0.041,0.177,0.219,0.259,DYS,1
3,89.858,0.718,0.114,0.017,0.012,0.05,0.047,0.042,172.949,0.376,0.088,0.024,0.032,0.069,0.236,0.175,74.72,0.585,0.234,0.036,0.027,0.051,0.033,0.034,101.74,0.57,0.135,0.031,0.04,0.077,0.067,0.081,119.358,0.34,0.171,0.031,0.026,0.185,0.122,0.124,9.494,0.66,0.145,0.016,0.015,0.067,0.045,0.052,164.249,0.35,0.042,0.007,0.027,0.149,0.184,0.24,99.91,0.456,0.081,0.016,0.022,0.085,0.157,0.182,147.621,0.482,0.078,0.023,0.029,0.056,0.173,0.158,47.623,0.898,0.078,0.006,0.001,0.005,0.007,0.005,106.474,0.759,0.08,0.014,0.004,0.035,0.057,0.05,139.375,0.322,0.107,0.062,0.02,0.278,0.09,0.122,125.624,0.503,0.109,0.058,0.018,0.138,0.07,0.105,215.326,0.14,0.132,0.036,0.039,0.223,0.215,0.214,DYS,1
3,119.12,0.639,0.149,0.006,0.013,0.072,0.046,0.075,168.057,0.212,0.104,0.011,0.028,0.074,0.299,0.272,93.545,0.713,0.127,0.007,0.014,0.044,0.037,0.058,127.637,0.624,0.147,0.014,0.017,0.073,0.058,0.066,190.814,0.235,0.167,0.026,0.035,0.242,0.141,0.154,11.063,0.51,0.153,0.014,0.025,0.117,0.075,0.105,207.102,0.125,0.058,0.017,0.033,0.155,0.247,0.365,75.443,0.675,0.128,0.012,0.021,0.038,0.059,0.068,146.472,0.213,0.1,0.017,0.026,0.074,0.287,0.283,47.394,0.836,0.088,0.002,0.001,0.015,0.026,0.031,109.384,0.493,0.079,0.008,0.003,0.072,0.14,0.204,170.764,0.175,0.116,0.047,0.06,0.289,0.134,0.179,157.39,0.354,0.112,0.039,0.049,0.178,0.096,0.172,140.732,0.058,0.075,0.01,0.007,0.142,0.23,0.48,DYS,1
3,109.293,0.685,0.119,0.025,0.012,0.071,0.045,0.042,160.671,0.419,0.107,0.016,0.031,0.09,0.192,0.146,90.56,0.652,0.084,0.031,0.01,0.091,0.057,0.075,128.641,0.501,0.173,0.024,0.02,0.129,0.075,0.08,199.886,0.243,0.118,0.04,0.059,0.23,0.164,0.145,13.996,0.359,0.285,0.021,0.034,0.1,0.092,0.109,209.988,0.167,0.075,0.013,0.016,0.227,0.212,0.29,145.954,0.453,0.107,0.04,0.023,0.126,0.139,0.111,142.508,0.436,0.115,0.013,0.027,0.082,0.171,0.156,51.644,0.722,0.183,0.007,0.007,0.014,0.036,0.031,119.801,0.411,0.078,0.014,0.023,0.082,0.199,0.194,180.269,0.144,0.151,0.045,0.094,0.274,0.133,0.16,175.32,0.169,0.151,0.075,0.058,0.251,0.118,0.178,155.174,0.097,0.052,0.018,0.019,0.16,0.312,0.343,DYS,1
3,92.273,0.745,0.09,0.039,0.006,0.05,0.03,0.04,166.238,0.656,0.082,0.035,0.023,0.038,0.083,0.084,90.168,0.719,0.11,0.042,0.006,0.055,0.027,0.042,131.715,0.587,0.172,0.059,0.019,0.063,0.049,0.05,212.829,0.323,0.165,0.034,0.052,0.2,0.106,0.12,12.535,0.402,0.125,0.024,0.028,0.159,0.118,0.143,233.533,0.229,0.074,0.126,0.012,0.176,0.15,0.233,165.187,0.665,0.07,0.006,0.01,0.066,0.088,0.094,143.245,0.699,0.076,0.032,0.016,0.034,0.071,0.073,49.727,0.79,0.084,0.006,0.003,0.014,0.053,0.05,106.935,0.382,0.097,0.009,0.008,0.043,0.243,0.219,179.463,0.323,0.172,0.034,0.035,0.188,0.126,0.122,178.127,0.29,0.201,0.074,0.037,0.218,0.072,0.108,188.632,0.066,0.05,0.014,0.008,0.206,0.271,0.385,DYS,1
